!Mini-Circuits Laboratory
!S-Parameters
!Model: MAR-6SM+
!Run / Lot / Date Code: N/A / AH182-001-02-22EV / 1052
!Fixture: N/A; TB-289+
!AUTO PORT EXTENSION DONE: PORT<1>=94.68ps; PORT<2>=95.92ps
!Network Analyzer: PNA-X N5242A - 423 4 ports;  Serial number: 71256
!Date: 3/16/2011
!S/N: Unit# 1
!
# Hz  S  dB  R  50
!Frequency    S11 dB        S11 Deg       S21 dB        S21 Deg       S12 dB        S12 Deg       S22 dB        S22 Deg       
10000100      -37.8046303   17.2836704    21.9611397    178.9042969   -24.1064396   -0.1622968    -30.2643509   161.5191040   
15000100      -37.0378990   27.2649307    21.9546700    178.7453003   -24.1643009   1.4370710     -30.6576996   158.5052948   
20000100      -34.8648491   14.9385300    21.9296398    178.4940948   -24.1513691   1.4793390     -31.4323692   165.5962067   
25000100      -35.3188095   4.2536802     21.9121895    178.2039032   -24.1540203   0.6780995     -31.0953693   173.6721039   
30000100      -34.1551590   9.1318398     21.8937397    177.9743958   -24.1456795   0.7002637     -31.2110100   171.8235931   
35000100      -33.4350586   7.8551531     21.8707905    177.7642975   -24.1576099   0.3425142     -31.5669899   173.2622986   
40000100      -33.4024391   7.0941000     21.8645096    177.5182037   -24.1518898   0.3722100     -31.5872898   175.8899994   
45000100      -33.2668304   7.9757910     21.8627701    177.2510071   -24.1274891   0.5663621     -31.7891407   176.4974060   
50000100      -33.4577293   6.0713048     21.8625603    176.9998932   -24.2261009   0.5859869     -31.7937794   177.9409027   
55000100      -33.9280586   8.6498442     21.8492603    176.8359985   -24.1572399   0.2078356     -31.5849209   179.6994934   
60000100      -33.7127991   9.1931515     21.8589001    176.5144958   -24.1708508   0.2110043     -31.7162991   -178.4360046  
65000100      -33.9989510   10.2579699    21.8587093    176.2086945   -24.1674500   0.4666529     -31.3762207   -178.7413940  
70000100      -34.1265602   11.0642595    21.8575191    175.9243927   -24.2268791   0.5469106     -31.1989002   -177.3665009  
75000100      -33.9345512   13.6392899    21.8593197    175.6694031   -24.1786709   0.5644611     -31.0305004   -178.9665985  
80000100      -33.9350586   13.1249304    21.8566208    175.3439026   -24.1622791   0.5800156     -31.1239204   -177.4051056  
85000100      -33.4302406   14.7220602    21.8505001    175.0702972   -24.1760006   0.8175523     -31.3244991   -178.4990997  
90000100      -33.3513718   14.7481403    21.8379898    174.7942963   -24.1686306   0.6588562     -31.0744209   -177.8724976  
95000100      -33.0987396   15.4658604    21.8327694    174.5099945   -24.1819496   0.9116073     -31.1642208   -178.3106995  
100000100     -32.8694916   14.1714697    21.8252907    174.2216034   -24.1886692   0.9851651     -31.1877098   -177.7779999  
105000100     -32.5477715   15.8897495    21.8113194    173.9179993   -24.1690598   0.9425974     -31.3820496   -177.9804993  
110000100     -32.3602791   15.7615499    21.8072395    173.6410065   -24.1453094   0.9612108     -31.3558998   -177.0814056  
115000100     -32.4616318   15.8329201    21.8000908    173.3755035   -24.1859493   1.0473059     -31.2521496   -177.0175934  
120000100     -32.3424110   15.0837002    21.7941494    173.1269989   -24.1541004   1.1264660     -31.1812305   -176.0162048  
125000100     -32.2121811   15.0440598    21.7885094    172.8506012   -24.1757507   0.9785326     -31.1758499   -174.5789032  
130000100     -32.3264618   15.6246099    21.7800598    172.5839996   -24.2045498   1.4264309     -31.2856598   -174.1286926  
135000100     -32.2529297   15.0892000    21.7863293    172.3618927   -24.1526604   1.1730109     -30.9621506   -174.3939972  
140000100     -32.2298203   15.8077297    21.7867794    172.1000977   -24.1821995   1.1820940     -30.9364395   -174.6174927  
145000100     -32.4216614   15.7927904    21.7860508    171.8215942   -24.1769295   1.2743469     -30.9192905   -174.4674988  
150000100     -32.5139313   16.9382801    21.7859592    171.5455017   -24.1833305   1.5702590     -30.7394295   -175.6887970  
155000100     -32.5873108   17.4277000    21.7862701    171.2807007   -24.1826706   1.4813770     -30.7577000   -175.3536072  
160000100     -32.5557899   17.5180206    21.7864494    171.0140076   -24.2161903   1.6577920     -30.8281002   -176.0756073  
165000100     -32.5877609   18.7827492    21.7878399    170.7162018   -24.1865406   1.3901570     -30.8002796   -174.5957031  
170000100     -32.6485214   22.1518192    21.7891502    170.4508057   -24.2094707   1.7252800     -30.8370705   -175.8013000  
175000100     -32.7272301   20.4208698    21.7841892    170.1656036   -24.1715508   1.4520530     -30.7138405   -173.4176025  
180000100     -32.5299187   21.8090801    21.7763805    169.8731995   -24.1944199   1.8217371     -30.8321400   -173.9098969  
185000100     -32.3705406   22.3941593    21.7690392    169.5953064   -24.1607609   1.5683820     -30.7300797   -173.9284973  
190000100     -31.9818001   22.0558491    21.7570305    169.3273010   -24.1674099   1.7864190     -30.8704109   -174.8755035  
195000100     -31.9172096   21.2782803    21.7470093    169.0623016   -24.1764507   1.9296170     -30.8022194   -174.2940979  
200000100     -31.6732006   20.3509007    21.7393093    168.7922974   -24.1768799   2.0130799     -30.7594299   -174.1878052  
205000100     -31.8338795   21.3137302    21.7308407    168.5525970   -24.1894302   2.0548730     -30.6286297   -172.1078033  
210000100     -31.7490101   21.9171009    21.7275505    168.2769012   -24.1993999   2.0357111     -30.8442001   -171.9019928  
215000100     -31.6983395   22.2054100    21.7236805    168.0449066   -24.1350307   1.8157361     -30.8175297   -172.8533020  
220000100     -31.8448391   22.6567097    21.7233295    167.7438965   -24.2187405   2.2656219     -30.7081108   -172.3583984  
225000100     -31.6656799   23.1968403    21.7216206    167.5075989   -24.1634197   2.2996080     -30.8262005   -171.9243011  
230000100     -31.9717102   22.5110092    21.7206898    167.2389984   -24.1848698   2.2688000     -30.6019096   -171.3695984  
235000100     -31.7488899   24.1772194    21.7194195    166.9633026   -24.1820107   2.2780390     -30.5152302   -171.5269928  
240000100     -32.0358086   24.4850807    21.7157707    166.7075958   -24.1621609   2.5944600     -30.3479996   -171.3556061  
245000100     -31.9016895   25.1452904    21.7094707    166.4411011   -24.2062893   2.5463860     -30.3130493   -172.7776947  
250000100     -31.5371609   25.9699802    21.6984806    166.1820984   -24.1984005   2.3732560     -30.2126904   -174.2039032  
255000100     -31.5428905   26.2679996    21.6935902    165.8706055   -24.1828499   2.6827691     -30.4066601   -171.9091949  
260000100     -31.6631508   25.0949402    21.6883698    165.6338043   -24.2070503   2.6855590     -30.1526508   -172.6347046  
265000100     -31.6466007   23.9110107    21.6842995    165.3576050   -24.1761894   2.6464660     -30.4115105   -172.6172028  
270000100     -31.7478008   25.9024200    21.6841908    165.0850067   -24.1922894   2.3897040     -30.3532295   -172.0254974  
275000100     -31.6202507   25.2301807    21.6774693    164.7958069   -24.1662197   3.2871070     -30.3414803   -171.6053009  
280000100     -31.6959591   25.7045097    21.6687298    164.5063019   -24.2183800   2.8672249     -30.1333599   -171.5061035  
285000100     -31.1652603   29.0297508    21.6629009    164.2494965   -24.1404800   3.0579140     -30.3175392   -172.4326019  
290000100     -31.1143494   25.5859394    21.6534309    163.9698944   -24.1581497   2.8434510     -30.2551804   -170.8674927  
295000100     -30.9722004   25.5853806    21.6482906    163.6829987   -24.1769009   2.8474309     -30.4458904   -170.3677979  
300000100     -30.9230995   25.5895500    21.6375408    163.4624939   -24.1387997   2.7996769     -30.2470207   -170.8146057  
305000100     -30.6571007   25.2689495    21.6307907    163.2227020   -24.1516991   3.1948459     -30.3664608   -169.6531067  
310000100     -30.8662109   25.8798008    21.6266899    162.9335938   -24.1847000   3.0291629     -30.0625000   -170.6582031  
315000100     -30.7030907   26.9491901    21.6175194    162.7057037   -24.1579399   3.1543679     -30.1308594   -170.2418060  
320000100     -30.7408695   28.3984909    21.6213398    162.4611053   -24.2146702   3.2453771     -30.1427898   -170.7890930  
325000100     -30.9115791   27.1620598    21.6203308    162.1896057   -24.2162094   3.3161321     -30.0175209   -170.3518982  
330000100     -30.7495098   27.4481697    21.6151791    161.8889008   -24.1586304   3.4432490     -30.0825291   -170.2012939  
335000100     -31.0307808   28.1392708    21.6063194    161.6421967   -24.1520500   3.4763391     -29.8568001   -171.4235992  
340000100     -30.9874592   29.8752708    21.6030903    161.4049072   -24.2116299   3.3812211     -29.9932404   -170.4645996  
345000100     -30.6892204   28.1124992    21.5957909    161.1139984   -24.1674900   3.5156460     -30.0799503   -170.2481995  
350000100     -30.5823193   29.8398209    21.5865002    160.8984070   -24.1299305   3.5766380     -29.7970505   -170.4069061  
355000100     -30.7199497   28.2223797    21.5800991    160.6009064   -24.2011204   3.7256031     -29.7881393   -170.8740997  
360000100     -30.5076599   28.8485394    21.5657406    160.3571930   -24.1534805   3.3371761     -30.0043793   -170.4627991  
365000100     -30.5081291   29.0977802    21.5592594    160.1094971   -24.1567307   3.6291621     -29.7228107   -170.6309052  
370000100     -30.3837795   28.8000698    21.5501308    159.8668976   -24.1626396   3.8552070     -29.7489109   -169.9232941  
375000100     -30.5548897   28.4888000    21.5451508    159.6063995   -24.1403694   3.9858501     -29.7027206   -170.3643951  
380000100     -30.2267094   27.9913597    21.5411301    159.3302002   -24.1133709   3.9712441     -29.6602306   -169.6405029  
385000100     -30.4037209   28.9632893    21.5381203    159.0803986   -24.1657600   3.9206181     -29.6263599   -169.9743042  
390000100     -30.5218201   30.3965302    21.5291996    158.8218994   -24.0609207   4.2941761     -29.5524197   -169.8347015  
395000100     -30.3717308   29.9172993    21.5245609    158.5348969   -24.1206894   4.1523890     -29.5394096   -168.3796997  
400000100     -30.2392406   28.2470703    21.5194206    158.2413940   -24.1415691   4.2306619     -29.5066891   -169.0708008  
405000100     -30.3894100   29.9295998    21.5123692    158.0106049   -24.1322708   4.2617140     -29.5250893   -169.8453064  
410000100     -30.0954399   29.8945408    21.5086899    157.7490997   -24.1317291   4.0180368     -29.6168308   -169.8341064  
415000100     -30.1332893   29.4810696    21.4958897    157.4521027   -24.1632500   4.2933931     -29.3090706   -169.4266968  
420000100     -29.8712997   30.2932301    21.4877205    157.2187042   -24.1325798   4.3791561     -29.2946701   -169.8854065  
425000100     -29.9341297   30.8384800    21.4719391    156.9526978   -24.1412907   4.7481518     -29.3564301   -170.0988007  
430000100     -29.7858391   30.0543995    21.4715500    156.6931000   -24.2006893   4.5153041     -29.2457199   -169.1974030  
435000100     -30.0678501   31.1443901    21.4557495    156.4893036   -24.1192894   4.9852538     -29.1762409   -170.0457001  
440000100     -29.8064804   30.7084808    21.4566498    156.2100983   -24.1201897   4.6852450     -29.4661694   -170.1614990  
445000100     -30.0291405   32.2947693    21.4525909    155.9387970   -24.1369705   4.6422501     -29.2051392   -169.6654968  
450000100     -29.8973007   32.6581306    21.4456100    155.6782074   -24.1168995   4.4591470     -29.0808296   -169.7503052  
455000100     -29.7637901   32.2601395    21.4361095    155.3865967   -24.1123695   4.6951151     -29.0857105   -168.7774963  
460000100     -29.5179806   31.9891491    21.4312401    155.1781006   -24.0989799   4.7192578     -29.0499001   -169.8981018  
465000100     -29.6722107   32.1094398    21.4209709    154.9127045   -24.1353092   4.6545439     -29.0082703   -168.0169983  
470000100     -29.6008892   31.1325302    21.4112396    154.6670990   -24.0935001   4.9802570     -28.8903408   -169.5847931  
475000100     -29.5170403   32.6901207    21.3942604    154.4347992   -24.1428299   4.8237271     -28.9675598   -168.4454041  
480000100     -29.2626801   30.7746906    21.3908806    154.1497040   -24.1250401   4.9952350     -29.0523796   -168.7106018  
485000100     -29.2936192   31.0925102    21.3790607    153.9073944   -24.0569801   5.1105261     -28.8292198   -169.3119049  
490000100     -29.1989403   30.4329605    21.3685207    153.6851959   -24.1138592   4.8847661     -28.9907894   -169.5854950  
495000100     -29.3614502   30.2597599    21.3619499    153.4519043   -24.1140308   5.2816410     -28.8150406   -168.6006927  
500000100     -29.4151707   29.6395397    21.3502502    153.1988983   -24.1123199   5.2689409     -28.5811195   -168.5144958  
505000100     -29.3181801   30.2934093    21.3466606    152.9286041   -24.1094894   4.9518161     -28.5496693   -167.9649963  
510000100     -29.5102501   30.4437504    21.3431702    152.6669006   -24.0642109   5.2914662     -28.4204407   -168.3206024  
515000100     -29.4325504   30.2565403    21.3355598    152.4008942   -24.0899105   5.2861481     -28.4449501   -168.9555969  
520000100     -29.3579292   31.9520092    21.3288898    152.1779022   -24.1112003   5.5048170     -28.4906693   -169.0290070  
525000100     -29.5575409   30.9972801    21.3226891    151.8881989   -24.0482101   5.7007942     -28.4625492   -168.9846039  
530000100     -29.4251709   32.1535683    21.3143806    151.6450958   -24.0692196   5.2042928     -28.3369102   -168.9181976  
535000100     -29.4045391   31.9836102    21.3010693    151.4008942   -24.0684204   5.4878802     -28.4347191   -169.9494934  
540000100     -29.4396992   31.3418999    21.2921295    151.1470032   -24.0807800   5.2310510     -28.3837605   -169.1278992  
545000100     -29.2171001   31.0369396    21.2785206    150.8892059   -24.0871391   5.8359938     -28.1793709   -169.0747986  
550000100     -29.2422199   30.4777203    21.2670498    150.6475067   -24.0602703   5.5493889     -28.1527996   -168.0764008  
555000100     -29.2543507   29.0695591    21.2599907    150.4015045   -24.0899792   5.6273098     -28.2114601   -166.9449005  
560000100     -29.0768909   30.1766396    21.2443104    150.1880951   -24.0685101   5.4510331     -27.9540291   -168.5751038  
565000100     -28.9332809   29.9163494    21.2419891    149.9801941   -24.0485096   5.7324491     -28.1001701   -169.5186005  
570000100     -29.4659691   30.9340706    21.2304707    149.6887054   -24.0903492   6.1081429     -27.8540192   -169.4548950  
575000100     -29.2337608   31.1304607    21.2285805    149.4629059   -24.0549793   5.7359819     -27.8437805   -168.0292969  
580000100     -29.2037506   31.9139595    21.2247601    149.1820984   -24.0663891   6.0746708     -27.8352108   -169.4091034  
585000100     -29.2597599   31.5689392    21.2184906    148.9071045   -24.0443001   6.3051109     -27.9300900   -169.7415009  
590000100     -28.9682999   31.5727100    21.2080898    148.6858063   -24.0661907   6.2003198     -27.7289009   -169.0901947  
595000100     -28.8430500   31.2691498    21.1886292    148.4275055   -24.0792694   6.3721962     -27.8552208   -169.2653046  
600000100     -28.8589706   30.2541409    21.1767902    148.1759949   -24.0655994   6.2246199     -27.7980099   -168.5950928  
605000100     -28.8502502   29.5268097    21.1601009    147.9557037   -24.0596600   6.1884971     -27.7148895   -168.8818054  
610000100     -28.7323608   28.6968708    21.1483498    147.7449036   -24.0159492   6.4496832     -27.7564392   -169.2969055  
615000100     -28.7738094   28.6898994    21.1365700    147.4974060   -24.0571003   6.3218231     -27.5492096   -169.2492065  
620000100     -28.8888206   29.7346401    21.1270008    147.2427979   -24.0131397   6.3877740     -27.4845200   -169.9515991  
625000100     -29.0574093   29.3940601    21.1203308    146.9945984   -24.0552292   6.1967511     -27.3288708   -169.5290985  
630000100     -28.8638592   29.5365696    21.1183796    146.7348022   -24.0139999   6.2674541     -27.3440895   -169.2471924  
635000100     -29.1320705   31.4102993    21.1122208    146.5104980   -24.0809002   6.6427212     -27.4435501   -169.9638062  
640000100     -28.9281902   30.5323391    21.1060600    146.2536926   -24.0561295   6.7071519     -27.3982391   -169.7863007  
645000100     -28.9414005   31.1128292    21.0950298    146.0121002   -23.9900799   6.5728531     -27.4259205   -169.7436981  
650000100     -28.8501606   30.1975002    21.0800896    145.7364044   -24.0501900   6.4473939     -27.3729000   -169.1065979  
655000100     -28.7399693   30.6073303    21.0643806    145.5391998   -24.0099697   6.6589012     -27.3531208   -170.1484985  
660000100     -28.6532402   28.9165096    21.0517597    145.3114929   -24.0043106   6.6745639     -27.1908798   -169.9297028  
665000100     -28.6611595   27.8765106    21.0400600    145.0619049   -24.0088406   6.7946100     -27.1813698   -170.3580017  
670000100     -28.7546692   29.0481701    21.0273609    144.8426056   -23.9792309   7.0618520     -26.9909592   -169.6009979  
675000100     -28.6158905   27.8871498    21.0193005    144.5885010   -24.0123596   6.9403481     -26.9928207   -170.5747070  
680000100     -28.6095905   28.2902908    21.0152092    144.3421936   -24.0022202   7.2296090     -27.0061703   -170.5675049  
685000100     -28.7105293   29.4712505    21.0072708    144.1313934   -24.0058804   7.1547241     -27.0578403   -170.8565063  
690000100     -28.8258591   28.7753201    21.0021191    143.8751068   -23.9914398   7.1966429     -27.0153103   -170.3852997  
695000100     -28.7349701   28.5127296    20.9956894    143.6273041   -23.9697609   7.0179582     -26.8515701   -169.7559967  
700000100     -28.6054897   28.9139996    20.9826698    143.3990021   -24.0038204   7.3330178     -26.9717293   -170.1802063  
705000100     -28.6267700   29.3458595    20.9702606    143.1295013   -23.9736805   7.4104452     -26.7667007   -170.5086060  
710000100     -28.6070194   28.8228893    20.9551792    142.9002075   -23.9747295   7.2783999     -26.7494793   -170.9640045  
715000100     -28.6354694   28.6164703    20.9395695    142.6378021   -23.9770603   7.4940190     -26.5933609   -170.4160004  
720000100     -28.6022091   29.1870193    20.9311790    142.4335938   -23.9943504   7.0232220     -26.6741505   -170.5084076  
725000100     -28.5339909   28.4149895    20.9131393    142.2277069   -23.9717598   7.5309901     -26.5244503   -171.0955048  
730000100     -28.5270309   27.7412491    20.9035892    141.9810944   -23.9834309   7.4808021     -26.5198898   -171.1988983  
735000100     -28.5217609   29.0775108    20.8938808    141.7434998   -23.9728203   7.4322691     -26.4563808   -171.3961945  
740000100     -28.6090794   28.8017807    20.8886909    141.5157928   -23.9504795   7.9558988     -26.5371704   -171.8005981  
745000100     -28.5095692   28.3718300    20.8779907    141.2628021   -23.9714394   7.5812020     -26.4626102   -171.3981934  
750000100     -28.5172291   29.2506104    20.8651505    141.0310974   -23.9428005   7.8149571     -26.4090595   -171.5364075  
755000100     -28.4848900   29.1821003    20.8595905    140.7725067   -23.9497204   8.0183125     -26.4250507   -171.4606018  
760000100     -28.4968891   27.9280891    20.8453102    140.5574951   -23.9801006   8.0511732     -26.3693295   -171.7171936  
765000100     -28.4626999   27.5322304    20.8320904    140.3193970   -23.9594193   7.7732859     -26.3478203   -171.6230011  
770000100     -28.4399891   27.7855892    20.8190403    140.1293030   -23.9469891   7.8269210     -26.3584003   -171.3730927  
775000100     -28.4556694   27.2519798    20.8077393    139.8885040   -23.9420395   8.0228558     -26.3204708   -171.8547058  
780000100     -28.5916996   27.3302307    20.8004704    139.6746979   -23.9166508   8.2251291     -26.2490005   -171.3656006  
785000100     -28.5368500   27.4370098    20.7891502    139.4505005   -23.9595203   8.2254848     -26.2208405   -172.4183044  
790000100     -28.3104401   27.1957397    20.7780094    139.2178955   -23.9318104   8.2624998     -26.1178093   -172.1251068  
795000100     -28.4286003   26.2672997    20.7678909    138.9804993   -23.9351902   8.0983229     -26.0847092   -172.1996002  
800000100     -28.3806801   27.1221695    20.7597198    138.7322998   -23.9023609   8.2862167     -26.0676899   -171.7843018  
805000100     -28.6406898   26.8789406    20.7479191    138.4904938   -23.9435997   8.2349930     -25.9577904   -172.4969940  
810000100     -28.4290600   27.2156105    20.7400703    138.2662964   -23.8966999   8.1820812     -25.9294891   -172.8171997  
815000100     -28.5628700   27.5677700    20.7255497    138.0561066   -23.9332905   8.4336004     -26.0205402   -172.8681030  
820000100     -28.5509605   27.3931694    20.7137108    137.8144073   -23.9249306   8.4792395     -26.0814705   -172.6065063  
825000100     -28.5337009   27.1026497    20.6985493    137.5834045   -23.9192104   8.4543133     -25.8907108   -172.9736023  
830000100     -28.5001202   26.6896496    20.6848106    137.3459930   -23.9363003   8.2704277     -25.8676395   -172.7886963  
835000100     -28.3865509   25.6486092    20.6715107    137.1334991   -23.9051895   8.6559057     -25.8276291   -172.8798065  
840000100     -28.4302292   25.9846802    20.6602192    136.9362946   -23.8857708   8.7080278     -25.7358894   -172.8105011  
845000100     -28.4187202   25.8747807    20.6486397    136.7346954   -23.8954105   8.6658888     -25.6878891   -173.3535004  
850000100     -28.4117298   26.1553097    20.6407394    136.5043945   -23.8871403   8.9360561     -25.6597404   -173.0157013  
855000100     -28.4650898   25.4857101    20.6282501    136.2637939   -23.8922195   8.7432251     -25.5740299   -173.9019928  
860000100     -28.3815594   25.9921799    20.6234894    136.0364075   -23.8873005   8.7149124     -25.4961796   -173.4799042  
865000100     -28.4587708   26.3349209    20.6104107    135.8023987   -23.9102993   8.7891407     -25.5225697   -173.4257050  
870000100     -28.4854393   25.8026009    20.6064301    135.5679016   -23.8814106   9.2157736     -25.5080395   -173.8704987  
875000100     -28.4988804   26.1837902    20.5919094    135.3533020   -23.8617401   8.9282694     -25.4993095   -173.7716980  
880000100     -28.3819103   26.2047806    20.5818195    135.1168976   -23.8692608   9.1602983     -25.4329605   -174.3329926  
885000100     -28.3813400   25.4685593    20.5621395    134.8901062   -23.8449402   9.1793489     -25.3301907   -173.8018036  
890000100     -28.2763195   24.4498501    20.5482006    134.6710968   -23.8569908   9.1567535     -25.4533691   -174.0245972  
895000100     -28.3418503   24.4198494    20.5305595    134.4562073   -23.8428097   9.3891602     -25.4299393   -173.9624023  
900000100     -28.4533005   23.0147305    20.5140495    134.2557068   -23.8570099   9.0727816     -25.2950706   -173.6172943  
905000100     -28.4039803   23.4563198    20.5072994    134.0496979   -23.8722706   9.1782722     -25.3010006   -173.8253021  
910000100     -28.4794006   22.8751793    20.4943295    133.8334045   -23.8337593   9.3848314     -25.1988106   -174.3444977  
915000100     -28.4147491   23.8257294    20.4885693    133.6175995   -23.8680592   9.5459442     -25.1808205   -174.4022980  
920000100     -28.4687691   23.8789005    20.4821091    133.3600006   -23.8375206   9.4610386     -25.1799393   -173.9183044  
925000100     -28.5285397   23.4264297    20.4725208    133.1302032   -23.8522301   9.4206495     -25.0887394   -174.5599976  
930000100     -28.5595398   24.1506004    20.4621506    132.9308929   -23.8264599   9.4464092     -25.0529308   -174.5653076  
935000100     -28.4718609   25.1489792    20.4486599    132.7200012   -23.8824997   9.5003443     -24.9341698   -174.7330017  
940000100     -28.5116901   23.8095093    20.4360695    132.4665985   -23.8186092   9.7356262     -25.0869808   -175.2035980  
945000100     -28.5117302   23.6373291    20.4193592    132.2669983   -23.8304100   9.7745323     -24.9311600   -175.0590973  
950000100     -28.4058399   23.2961102    20.4031792    132.0561981   -23.8072491   9.5105658     -24.9920902   -175.2239075  
955000100     -28.4797897   22.1550007    20.3836498    131.8365936   -23.8010693   9.6433859     -24.8831100   -175.0310059  
960000100     -28.5427799   21.9042397    20.3731899    131.6450958   -23.7961998   9.6308537     -24.9134808   -174.7165070  
965000100     -28.3700409   22.1314392    20.3643303    131.4532013   -23.8026600   9.6793175     -24.7146606   -175.4226074  
970000100     -28.5283794   21.4066505    20.3569794    131.1940002   -23.7626991   9.7952747     -24.8034801   -175.6865997  
975000100     -28.5224895   22.2271805    20.3444996    130.9884033   -23.7999897   9.7844868     -24.7120209   -175.7359009  
980000100     -28.6283798   22.8759003    20.3356495    130.7667999   -23.7842999   10.2220402    -24.6982594   -175.7985992  
985000100     -28.7469807   22.9008808    20.3296909    130.5207977   -23.7652092   10.0456495    -24.6332302   -176.2987061  
990000100     -28.5162296   24.1001492    20.3152409    130.2935944   -23.8040295   9.9623985     -24.6455002   -176.4763947  
995000100     -28.4971008   23.0254707    20.2917194    130.0796051   -23.7867699   10.1045704    -24.6313400   -176.3338013  
1000000100    -28.3868694   20.8934803    20.2704906    129.8939972   -23.7951908   10.2486496    -24.6311798   -176.7077026  
1025000100    -28.4638100   18.5902691    20.2071400    128.8825073   -23.7732792   10.3712902    -24.3907700   -176.8321991  
1050000100    -28.5972500   19.4570198    20.1516991    127.8284988   -23.7456894   10.5170898    -24.2991600   -176.9821930  
1075000100    -28.5695000   16.5495205    20.0838795    126.8116989   -23.7152500   10.7990799    -24.1102600   -178.0057068  
1100000100    -28.7055702   16.5619507    20.0211601    125.7592010   -23.7103596   10.9606304    -24.0137005   -178.4638062  
1125000100    -28.6519909   14.9170303    19.9553509    124.7742004   -23.6679592   11.4274502    -23.7851391   -178.3885040  
1150000100    -28.8585701   13.9423304    19.9040298    123.7043991   -23.6371708   11.5266399    -23.6266499   -178.9665985  
1175000100    -28.8104591   10.3427000    19.8233891    122.7705002   -23.5996304   11.7455902    -23.4940701   -179.6031952  
1200000100    -28.9595509   10.6933804    19.7738209    121.7357025   -23.5835991   11.9469099    -23.2784901   179.1833038   
1225000100    -28.9468307   8.4979849     19.6999607    120.7519989   -23.5775108   12.1044998    -23.1763496   178.9768066   
1250000100    -29.3670197   7.0002470     19.6320705    119.8029022   -23.5586796   12.3488503    -23.0648499   179.2164001   
1275000100    -29.3724003   5.0681248     19.5720196    118.8249969   -23.5211697   12.6245098    -22.8215809   178.4597931   
1300000100    -29.5065193   3.0791080     19.5088596    117.8376007   -23.4893208   12.6174202    -22.6943302   178.0045929   
1325000100    -29.5278301   0.4202285     19.4339695    116.9052963   -23.4532909   12.8435698    -22.6411800   176.9851990   
1350000100    -29.8132801   -0.5322799    19.3724003    115.9476013   -23.4456406   12.9602299    -22.4402199   176.3569031   
1375000100    -29.8406696   -2.5305381    19.3077202    115.0168991   -23.4135799   13.2565899    -22.3080807   175.9069977   
1400000100    -30.0299797   -3.1559839    19.2386093    114.1020966   -23.4239902   13.4787998    -22.2046394   175.2510071   
1425000100    -29.7160301   -6.0834789    19.1588097    113.1942978   -23.3956108   13.7098398    -22.1644592   174.7854004   
1450000100    -29.9796295   -9.6982985    19.1028500    112.3203964   -23.3510704   13.6701698    -21.9692593   174.7411041   
1475000100    -30.1434097   -11.1902800   19.0417404    111.3837967   -23.3098297   13.9436302    -21.8513298   174.4512024   
1500000100    -30.1275101   -15.6295300   18.9656105    110.5267029   -23.3003502   14.2259102    -21.7901001   174.3672943   
1525000100    -30.8923607   -17.5097103   18.9174404    109.5602036   -23.2677593   14.1550398    -21.4011707   173.1916046   
1550000100    -30.3090496   -18.0016403   18.8306599    108.7288971   -23.2418003   14.6594896    -21.5820599   172.5126953   
1575000100    -30.3774700   -22.1971493   18.7624893    107.8834991   -23.1932602   14.5153799    -21.4898205   172.7274933   
1600000100    -30.4418793   -26.0900307   18.7018700    107.0513000   -23.1743603   14.6304998    -21.2784500   172.3712006   
1625000100    -30.6245995   -27.3522091   18.6415596    106.1527023   -23.1257191   15.2336998    -21.2234306   172.1235962   
1650000100    -30.3970509   -32.9078217   18.5704308    105.3154984   -23.1128101   15.1009598    -21.0645294   171.3686981   
1675000100    -30.8782005   -33.9899406   18.5096607    104.4336014   -23.1187992   15.4204798    -20.9567795   170.7256927   
1700000100    -30.4966698   -35.1784515   18.4256306    103.5932999   -23.0561790   15.5911398    -21.0066891   169.8677063   
1725000100    -30.4321995   -38.8566895   18.3645401    102.8104019   -23.0726891   15.7847500    -20.9735394   169.8455963   
1750000100    -30.1229496   -42.4277000   18.2996292    102.0199966   -22.9961700   15.6949301    -20.7994499   170.2566071   
1775000100    -30.0079498   -45.8841400   18.2351894    101.2397003   -22.9705791   16.0411091    -20.7003403   169.6925049   
1800000100    -29.8189392   -49.3410797   18.1753902    100.4294968   -22.9444408   16.0470104    -20.5777397   169.4915009   
1825000100    -29.7068691   -53.7605209   18.1163597    99.6441498    -22.9334202   16.1720104    -20.4508591   169.4700928   
1850000100    -29.9141197   -54.9767990   18.0406895    98.7666931    -22.9097404   16.2918091    -20.3674507   168.1708069   
1875000100    -29.2246304   -58.1990204   17.9749508    98.0819931    -22.8557091   16.6686306    -20.3566799   168.3645935   
1900000100    -29.1062508   -61.1959114   17.9179497    97.2464905    -22.8151302   16.6071396    -20.2076206   168.1593018   
1925000100    -28.9008102   -65.1128693   17.8506508    96.5093536    -22.7766399   16.8354607    -20.1289196   167.5848999   
1950000100    -28.7291908   -67.8911819   17.7918606    95.7049408    -22.7418900   17.0104294    -20.0200100   167.2234039   
1975000100    -28.5525208   -70.9631271   17.7340508    94.9331512    -22.7200108   16.9833794    -19.9613094   167.1018982   
2000000100    -28.2054291   -72.7073669   17.6659698    94.1484070    -22.6735191   17.1843891    -19.7777996   167.0630951   
2025000100    -27.8691292   -77.7362671   17.6042099    93.3808670    -22.6457500   17.3144093    -19.7819595   166.5101013   
2050000100    -27.8661404   -77.5067368   17.5368690    92.6699371    -22.6544609   17.6225891    -19.8161793   166.3358002   
2075000100    -27.3941898   -80.1003571   17.4821892    91.9398804    -22.6065407   17.4763107    -19.6868591   166.6645050   
2100000100    -27.2603703   -83.5425415   17.4239292    91.1612015    -22.5896397   17.6460991    -19.5269508   166.3820038   
2125000100    -26.8798504   -85.5688629   17.3601398    90.4346466    -22.5294609   17.6696491    -19.4678192   165.7785950   
2150000100    -26.7250309   -87.3764420   17.3045006    89.6397934    -22.5049992   17.7744904    -19.3410797   165.3274994   
2175000100    -26.4564209   -88.3938904   17.2297707    88.8964920    -22.4757099   17.9972191    -19.2990208   164.2182007   
2200000100    -26.1205997   -89.9944000   17.1678905    88.2808685    -22.4435291   17.8871193    -19.2793102   164.8661041   
2225000100    -25.8966503   -92.6393967   17.1200905    87.4997635    -22.4251404   18.1112995    -19.2050896   164.4400024   
2250000100    -25.4828300   -94.0467834   17.0586205    86.7935181    -22.3707409   18.1671295    -19.1667995   164.3334045   
2275000100    -25.4507408   -96.4723434   16.9987793    86.0580292    -22.3486996   18.3180904    -19.0298805   163.5191040   
2300000100    -25.0833206   -98.3005219   16.9422207    85.3598175    -22.3245697   18.2354202    -18.9367905   163.8014984   
2325000100    -24.8990993   -100.0261002  16.8780594    84.5920868    -22.2742195   18.3167591    -18.9016399   163.0088043   
2350000100    -24.6604900   -100.0812988  16.8165493    83.9350510    -22.2485104   18.3850002    -18.8503494   162.9667969   
2375000100    -24.3876896   -102.0969009  16.7616291    83.2361984    -22.2301102   18.5308094    -18.7730293   162.3854065   
2400000100    -24.1058598   -102.7922974  16.6982594    82.5649490    -22.1823196   18.6396198    -18.8176498   162.9472961   
2425000100    -23.9078503   -104.5425034  16.6501598    81.8297806    -22.1471291   18.7565002    -18.6401100   162.4517059   
2450000100    -23.7873096   -106.9489975  16.5846004    81.0458374    -22.1324406   18.4774895    -18.5432701   161.2657013   
2475000100    -23.8076992   -106.6119995  16.5149403    80.4099274    -22.1377792   18.8069191    -18.5847206   160.9355011   
2500000100    -23.3845806   -107.3700027  16.4657497    79.7560730    -22.0647297   18.8565292    -18.4777908   161.1829987   
2525000100    -23.2562599   -107.6344986  16.3976994    79.1689224    -22.0526104   19.0557499    -18.5979004   160.9589996   
2550000100    -22.9680500   -110.4373016  16.3622303    78.4208069    -21.9960594   18.7742691    -18.3814106   161.4105072   
2575000100    -22.7294502   -109.2590027  16.2943096    77.8365631    -21.9871693   19.3570004    -18.4214001   160.7223969   
2600000100    -22.4446392   -110.3917999  16.2413597    77.1405334    -21.9466400   19.1239700    -18.3192101   160.6006927   
2625000100    -22.2012901   -112.1675034  16.1924801    76.4577637    -21.8922195   19.4051800    -18.2342205   160.4942017   
2650000100    -21.9983597   -113.8625031  16.1404305    75.7414398    -21.8648205   18.9744492    -18.1078300   159.9880981   
2675000100    -21.8618698   -114.6455994  16.0832691    75.0614624    -21.8679409   19.0674000    -18.0759697   159.4799957   
2700000100    -21.8096199   -115.6060028  16.0165806    74.4215012    -21.8455200   19.1935406    -18.0505600   158.7718964   
2725000100    -21.6105194   -116.7874985  15.9649601    73.7618103    -21.7886600   19.3136406    -17.9898605   159.1950073   
2750000100    -21.7004700   -115.6918030  15.8766499    73.1622772    -21.8273296   19.5641594    -18.0893898   157.5211029   
2775000100    -21.3470497   -116.9166031  15.8388100    72.5049667    -21.7859402   19.5045891    -17.9455891   158.0529022   
2800000100    -21.1346703   -117.6272964  15.7931900    71.9135971    -21.7196198   19.7269402    -17.9618206   157.7619019   
2825000100    -20.9249001   -117.7770996  15.7404099    71.3341064    -21.6828499   19.8206501    -17.9684505   158.1819000   
2850000100    -20.7851601   -118.6819000  15.6849203    70.6627731    -21.6328392   19.5728798    -17.8596592   157.7205963   
2875000100    -20.6702900   -119.7419968  15.6211700    70.0356293    -21.6554108   19.7463207    -17.8649197   156.9622955   
2900000100    -20.4514294   -119.4337997  15.5741701    69.4602737    -21.5674400   19.9944305    -17.8959694   157.5099030   
2925000100    -20.0112400   -119.8841019  15.5403996    68.9354706    -21.5506592   20.0540600    -17.8575592   158.2913971   
2950000100    -19.9722099   -122.2285995  15.4866505    68.1489334    -21.5189610   19.8583908    -17.6719208   157.1994019   
2975000100    -19.8241806   -122.2395020  15.4325705    67.6017914    -21.4706192   19.7982903    -17.7505302   157.4331970   
3000000100    -19.6068802   -123.2522964  15.3954601    66.9120636    -21.4432507   19.8643894    -17.5827103   157.3283997   
3025000100    -19.5071201   -124.4699020  15.3390398    66.2334824    -21.4130898   19.5832596    -17.4735699   156.7886047   
3050000100    -19.6170292   -126.0049973  15.2666397    65.5736923    -21.4396095   19.8115406    -17.4710007   155.6522980   
3075000100    -19.3279896   -123.5897980  15.2242899    65.2098618    -21.3748798   20.3141994    -17.6757698   156.3092041   
3100000100    -18.9885101   -125.1165009  15.2014904    64.5612335    -21.2942104   20.1228905    -17.4836998   157.3596954   
3125000100    -18.7503204   -127.0057983  15.1579704    63.8280983    -21.2398796   19.8729305    -17.3133106   157.1298981   
3150000100    -18.8300400   -127.7139969  15.0896702    63.1842690    -21.2514191   19.8409805    -17.2768307   156.1911926   
3175000100    -18.7421494   -128.5930023  15.0336304    62.5083694    -21.2328892   19.8437691    -17.2417698   155.3220978   
3200000100    -18.4932995   -128.4671936  15.0007200    61.9992104    -21.2124195   19.8760605    -17.1839809   156.2032928   
3225000100    -18.4528904   -129.5131073  14.9387102    61.3621712    -21.1749401   20.1614799    -17.1730709   155.0653076   
3250000100    -18.2249699   -130.4808044  14.9069996    60.7188683    -21.1081505   19.6748791    -17.0120602   155.4131927   
3275000100    -18.5295601   -133.3753967  14.8034000    59.9048004    -21.1550007   19.3369293    -17.0403595   152.8786011   
3300000100    -18.1041393   -130.2248993  14.7967396    59.7217102    -21.0913105   20.0744495    -17.1612091   155.2378998   
3325000100    -17.9286404   -130.8789978  14.7533197    59.1027489    -21.0517006   20.2831993    -17.1421204   155.2050934   
3350000100    -17.7423992   -132.4210052  14.7188196    58.3984718    -20.9750195   19.8932400    -16.9636993   155.1304932   
3375000100    -17.6675892   -134.1287994  14.6738901    57.6575813    -20.9696198   19.6686897    -16.7934093   154.3645020   
3400000100    -17.9018993   -134.4667969  14.5743303    57.1248207    -21.0040798   19.6601200    -16.8896809   152.1031952   
3425000100    -17.4930401   -134.0603943  14.5634098    56.6467209    -20.9081593   20.1350307    -16.9040203   153.8388977   
3450000100    -17.5086498   -135.8820038  14.5014696    55.9497490    -20.9410095   19.5406094    -16.7999191   152.4503021   
3475000100    -17.3457298   -135.0655060  14.4636803    55.5500107    -20.8871098   20.1189003    -16.9022903   153.2545013   
3500000100    -17.1410198   -136.3283997  14.4394798    54.8522797    -20.7922897   19.7255001    -16.6782608   153.7920990   
3525000100    -17.4300098   -137.2615967  14.3456202    54.1835899    -20.8517094   19.5109997    -16.6302395   151.3388977   
3550000100    -17.2073803   -137.2413025  14.3096704    53.7651596    -20.8223801   19.7872906    -16.7963295   152.0897980   
3575000100    -16.9378796   -139.5207977  14.2826900    52.9175911    -20.7385597   19.5373306    -16.4779797   151.6452026   
3600000100    -17.0236206   -136.9382019  14.2213497    52.7000504    -20.7685204   20.3083000    -16.8038998   151.7227936   
3625000100    -16.9424000   -138.6972046  14.1726503    51.9897690    -20.7517700   19.5883408    -16.6533794   150.9907074   
3650000100    -16.5524101   -138.2192993  14.1732302    51.5941887    -20.6356792   20.1674004    -16.6720200   152.8314972   
3675000100    -16.7164192   -140.1703949  14.0886097    50.8277702    -20.6648502   19.7669697    -16.5828400   150.6560974   
3700000100    -16.6342506   -138.0393982  14.0507002    50.6851997    -20.6658497   20.6011791    -16.9219799   151.6790009   
3725000100    -16.2550507   -139.7882996  14.0511703    49.9225006    -20.5420303   20.3102798    -16.5959797   152.6654053   
3750000100    -16.1502209   -140.1347961  14.0032597    49.3515511    -20.5288391   20.1818104    -16.5397701   151.9360962   
3775000100    -16.0653496   -142.3526001  13.9666595    48.5404816    -20.4724407   19.6482906    -16.2469501   151.9479980   
3800000100    -16.0088291   -142.6475067  13.9107704    48.0407906    -20.4313793   19.8807697    -16.2908306   151.2539978   
3825000100    -16.2209492   -141.0204926  13.8333702    47.8541985    -20.5154209   20.3503895    -16.6719398   150.0370941   
3850000100    -15.5948601   -143.4544983  13.8694096    46.9341316    -20.3164902   20.0095100    -16.1576996   152.3806000   
3875000100    -15.6217403   -145.2438965  13.8102598    46.1843796    -20.2791901   19.5466900    -16.0527592   151.3056030   
3900000100    -15.6398001   -145.4766998  13.7483797    45.7234497    -20.3371391   19.4596691    -16.1099205   150.1627045   
3925000100    -15.4166698   -145.5858002  13.7383204    45.1116600    -20.2325191   19.7006397    -15.9384003   151.2478943   
3950000100    -15.4935102   -147.8952942  13.6633101    44.3712883    -20.2553692   18.9306793    -15.8025999   149.3258972   
3975000100    -15.2247000   -147.8229980  13.6536999    43.8675919    -20.1682892   19.2093296    -15.7708702   149.9501038   
4000000100    -15.2459497   -149.3358002  13.5885296    43.2046814    -20.1602001   18.9302502    -15.6652498   148.8435974   
4025000100    -15.2112703   -150.8851929  13.5296898    42.4847794    -20.1518002   18.4465504    -15.5706196   147.6945038   
4050000100    -15.3630505   -149.4452057  13.4699297    42.3670387    -20.1973209   19.1663704    -15.8896599   147.7140045   
4075000100    -15.2276201   -149.4951935  13.4507504    41.8718185    -20.1737900   19.2323093    -15.8754902   148.2073059   
4100000100    -15.0163298   -150.6210938  13.4263401    41.1533813    -20.1086006   18.7972603    -15.6412497   148.3708038   
4125000100    -14.7451496   -152.3721008  13.4083004    40.3199005    -19.9769001   18.7243195    -15.3761902   148.3356934   
4150000100    -14.8414402   -154.8833008  13.3266602    39.5595398    -20.0172291   17.8997307    -15.2356300   146.2964935   
4175000100    -15.0725803   -153.6533051  13.2508097    39.4248695    -20.0764103   18.3453407    -15.5592899   145.3137054   
4200000100    -15.2508602   -151.1354065  13.2009001    39.4152298    -20.1719398   19.1923599    -15.9198198   145.6262970   
4225000100    -14.6598997   -153.4949036  13.2307396    38.4430389    -19.9659405   18.8974495    -15.4489098   147.0899963   
4250000100    -14.8453703   -156.5245972  13.1286802    37.6013794    -19.9980392   17.9713192    -15.2831202   144.4496002   
4275000100    -14.5923700   -154.6663055  13.1398001    37.3614197    -19.9127197   18.8122692    -15.3862000   146.5314026   
4300000100    -14.8212099   -158.2380066  13.0235395    36.4889488    -19.9462509   17.4882393    -15.2451801   143.2003937   
4325000100    -14.5350904   -156.1990967  13.0518599    36.2995911    -19.9072094   18.6301594    -15.3593702   145.5511017   
4350000100    -14.4178305   -157.3013000  13.0139198    35.6443405    -19.8609695   18.2201309    -15.2311296   145.1065063   
4375000100    -14.3340702   -156.8838043  12.9835901    35.2445984    -19.8087902   18.5668297    -15.2788401   145.3404999   
4400000100    -14.2940397   -160.8296051  12.8981600    34.1847191    -19.7934608   17.2561703    -14.9173899   142.8726044   
4425000100    -14.3785295   -157.9129944  12.8908901    34.3493500    -19.8490696   18.3702698    -15.3536501   144.7191010   
4450000100    -14.4176903   -158.3777008  12.8261003    33.9185791    -19.8594704   18.3725109    -15.4086199   143.2924042   
4475000100    -14.1159296   -160.5447998  12.8286695    32.9841805    -19.7080097   17.9904003    -15.0796700   144.3410950   
4500000100    -14.1772604   -160.8578033  12.7665596    32.6029892    -19.7762394   18.0546207    -15.1621904   143.4445953   
4525000100    -14.0460796   -161.3002930  12.7452297    31.9649696    -19.6725197   17.9849396    -14.9687204   143.4257050   
4550000100    -14.0952702   -162.2183075  12.6728296    31.4164295    -19.7380791   17.4721203    -14.9303398   141.9225006   
4575000100    -13.9545202   -164.4015045  12.6319799    30.6557102    -19.6497593   16.9326096    -14.7427998   141.5408020   
4600000100    -13.9966803   -164.9839935  12.5775299    30.2266598    -19.6510105   16.9587708    -14.8090401   141.1466980   
4625000100    -14.1036997   -162.6069031  12.5478897    30.2017498    -19.7124290   17.5869198    -15.0547800   140.8576965   
4650000100    -13.6952600   -162.6083984  12.5908098    29.6136608    -19.5753803   18.2244797    -14.9015398   143.2803955   
4675000100    -13.2805796   -163.8020935  12.6148500    28.7428303    -19.4028893   18.2724800    -14.5944500   144.6020050   
4700000100    -13.1240997   -166.5684052  12.5482397    27.7639103    -19.3232002   17.1792603    -14.2517900   143.0847931   
4725000100    -13.5748596   -168.7052002  12.3947802    27.3626404    -19.4872303   16.2121506    -14.3946695   139.4857941   
4750000100    -13.2303600   -167.2409973  12.4516001    27.0049191    -19.3724194   17.1647396    -14.4514303   141.9598999   
4775000100    -13.4518299   -170.7920074  12.3139296    26.2066898    -19.4494705   15.8883495    -14.3176899   138.8740997   
4800000100    -13.8186302   -168.3672943  12.2609596    26.4767799    -19.6332207   16.6838093    -14.7250004   138.3202057   
4825000100    -13.4838400   -170.0240021  12.2502298    25.5139008    -19.4598503   16.1997604    -14.3055801   138.9266052   
4850000100    -13.5542202   -175.8139954  12.0798597    24.2944508    -19.4595909   13.8096399    -13.8845501   134.2156982   
4875000100    -13.5316401   -166.5984955  12.2365303    25.5211391    -19.5742092   17.8111401    -14.9533796   140.1844025   
4900000100    -13.3405504   -169.6492004  12.1791096    24.4920292    -19.4530602   16.9696999    -14.5865097   139.3294067   
4925000100    -13.1475296   -169.2044983  12.1781797    23.9689407    -19.3698997   17.0201797    -14.4900599   139.3339996   
4950000100    -12.8886900   -173.4194031  12.1046104    22.6726208    -19.2487907   15.7668600    -13.9789400   138.1036987   
4975000100    -12.4895802   -175.0186005  12.1149797    21.7721806    -19.0823708   15.4945402    -13.7427502   139.2073059   
5000000100    -13.5220604   178.7859039   11.7745304    21.3875904    -19.4289207   12.5319405    -13.7382097   131.1015930   
5025000100    -12.7663097   -172.8740997  12.0574703    21.6498795    -19.2388992   16.6385498    -14.1743202   139.4461060   
5050000100    -12.6974497   -174.5298004  11.9940100    20.8428097    -19.1863003   15.7974195    -13.8804398   138.2138062   
5075000100    -12.6504698   -174.9855042  11.9690504    20.4716606    -19.1799603   15.9812803    -14.0237904   138.2460938   
5100000100    -12.7868795   -176.2400970  11.8863201    20.0208702    -19.2383900   15.3477898    -14.0770702   136.6764069   
5125000100    -13.2637596   -173.6542969  11.8156500    20.5662403    -19.5054398   16.2347507    -14.6838102   134.9703064   
5150000100    -12.5335903   -179.6230927  11.7934103    18.4743500    -19.0655708   14.3884497    -13.5981503   135.5933075   
5175000100    -12.4744701   -176.3338928  11.8543196    18.6958504    -19.1336498   16.0915508    -14.0375700   138.1325989   
5200000100    -12.3291998   -177.9181061  11.7874403    17.8314209    -19.0610294   15.3248596    -13.7781200   136.4234009   
5225000100    -12.3448400   -176.8997955  11.7802095    17.7898998    -19.1250095   15.9229403    -14.0262604   137.0066986   
5250000100    -12.2141399   -176.4010010  11.8069601    17.3081799    -19.0510101   16.4788494    -13.9309998   138.4309998   
5275000100    -11.8574400   179.0144958   11.7179899    15.8487597    -18.8433895   14.6236296    -13.3459597   136.7816010   
5300000100    -12.0466805   176.0847931   11.5728998    15.1235800    -18.8580608   13.0918703    -13.1659698   133.4716034   
5325000100    -12.4359598   -176.8289032  11.6701298    16.5348492    -19.2402191   16.5380306    -14.3528099   136.5019073   
5350000100    -12.1242599   176.6856995   11.5325203    14.7107401    -18.9637604   13.6849098    -13.4503298   133.7299042   
5375000100    -12.1805401   177.5858002   11.5249701    14.5257797    -18.9998302   14.1834202    -13.5616903   134.5204010   
5400000100    -12.8619404   -176.8871002  11.5269299    15.8957300    -19.4886799   16.2803707    -14.8021002   134.5823059   
5425000100    -11.4601898   179.8332977   11.6581898    13.4538803    -18.7789001   16.3079395    -13.4935102   139.0803070   
5450000100    -11.8729496   176.3657990   11.4741096    12.9395704    -18.9009399   14.4135599    -13.4518604   135.3367004   
5475000100    -12.3450003   174.3721008   11.3024101    12.8317099    -19.1000004   12.8544302    -13.5816898   130.6871033   
5500000100    -12.1322803   -179.2901001  11.4673500    13.3287601    -19.1934605   15.9665003    -14.1974297   134.8144989   
5525000100    -11.7010403   175.7953033   11.3780603    11.6732502    -18.9025707   13.9817200    -13.4748497   133.5780029   
5550000100    -11.9391003   179.3798981   11.4329100    12.2567997    -19.1227093   15.8019505    -14.1778297   135.6282043   
5575000100    -11.3641300   177.6376038   11.4616604    10.8819904    -18.7817707   15.7344198    -13.5307503   137.0061951   
5600000100    -11.2922602   176.7436981   11.4190302    10.4013596    -18.7906799   15.3690395    -13.5312099   136.1790924   
5625000100    -11.4774799   173.2422028   11.2635698    9.6929541     -18.8260403   13.4120197    -13.3733397   133.0565948   
5650000100    -11.5446796   173.4024963   11.2477102    9.3593950     -18.8076801   13.7623997    -13.4265099   133.3815002   
5675000100    -12.1733999   175.2496033   11.1611900    10.3820000    -19.2944298   13.7427502    -14.3658705   130.1378937   
5700000100    -11.3912296   179.3516998   11.3967600    9.6127796     -18.9880905   16.9308300    -14.1410704   137.9300995   
5725000100    -10.7997198   174.6690063   11.3463097    7.6099138     -18.5698605   15.3529196    -13.1950798   137.2917023   
5750000100    -10.8380899   174.7633972   11.3157701    7.4084020     -18.6503506   15.5646801    -13.3563805   136.8200989   
5775000100    -11.0098400   173.4028015   11.2037802    7.0773268     -18.7265091   14.5169296    -13.3743496   134.1515045   
5800000100    -10.4505196   172.9398041   11.2791300    5.7797031     -18.3947906   15.1480503    -12.8748198   137.2039032   
5825000100    -10.7630396   170.2586060   11.0981703    5.5562091     -18.5797005   13.0096998    -12.9220304   132.2902985   
5850000100    -10.8800201   171.9757996   11.1494799    5.8366680     -18.7191505   14.3573704    -13.4725800   134.5364990   
5875000100    -10.2825003   172.9398041   11.2580004    4.6069660     -18.4133396   15.6397495    -12.9598703   137.8195953   
5900000100    -10.4438105   174.3002014   11.2552605    4.7220511     -18.5839005   16.0470505    -13.2651997   137.9431000   
5925000100    -9.9204731    173.1589050   11.2878199    3.4701750     -18.3094692   16.4436092    -12.8975000   139.5057983   
5950000100    -9.8157988    168.8961945   11.1252203    2.1576669     -18.1000195   14.1804600    -12.3685398   135.9194031   
5975000100    -10.3662901   167.9591980   10.9873400    2.4438281     -18.3863297   13.1223097    -12.6656704   132.8480072   
6000000100    -10.8233700   166.6336975   10.8529797    2.8408689     -18.6695194   11.7013197    -13.1481705   129.6938934   
6025000100    -9.8643637    169.5417938   11.1057997    1.3646390     -18.2381592   14.9464903    -12.6600399   137.3937073   
6050000100    -9.7184868    165.4998016   10.9523096    0.0474506     -17.9965000   12.6751900    -12.0828400   133.8103027   
6075000100    -10.6908998   167.6369019   10.8493004    1.6502600     -18.6683903   12.0464802    -13.0937099   130.3502045   
6100000100    -9.4911270    169.0792999   11.0760603    -0.2275389    -18.1594601   15.1885796    -12.5505600   137.0641937   
6125000100    -9.2384348    169.3276978   11.1468601    -0.9970652    -17.9599209   16.0973701    -12.3387299   139.5513000   
6150000100    -9.2053957    164.9624023   10.9447403    -2.1931350    -17.8110905   13.2894802    -11.9335804   134.8388977   
6175000100    -9.5510483    163.9772949   10.8278704    -1.8673340    -18.0792103   12.1343498    -12.3360300   132.1280975   
6200000100    -9.2069159    165.2095947   10.9679499    -2.7817230    -17.9218292   14.1481400    -12.1417103   136.9360962   
6225000100    -9.4527960    164.3325043   10.8613901    -2.9034491    -17.9913902   12.8354397    -12.2320099   134.1087952   
6250000100    -9.6120749    161.7637024   10.7218199    -3.3099101    -18.0341606   11.2123899    -12.2253103   131.2642059   
6275000100    -9.3838043    163.7890015   10.7889900    -3.8451879    -18.0120907   12.1148300    -12.1346302   132.6725006   
6300000100    -9.5395718    160.3804932   10.6426201    -4.1534162    -18.0301094   10.6985397    -12.2441597   130.7180939   
6325000100    -9.2650757    162.2492981   10.7416801    -4.8997340    -17.9267807   11.7793903    -12.1354399   132.1795044   
6350000100    -9.1987638    161.1797028   10.6997299    -5.4361162    -17.9172096   11.4066601    -12.1130505   131.9474030   
6375000100    -8.9281635    163.3934937   10.8414402    -6.0401011    -17.8472691   13.3300896    -12.0625000   135.5774994   
6400000100    -8.9219408    160.8842010   10.7182798    -6.7556601    -17.7849998   12.0310097    -11.9068403   132.8963013   
6425000100    -8.9472237    159.6546021   10.6364098    -7.1776419    -17.7473392   10.9654999    -11.8159704   131.3674927   
6450000100    -9.0076323    160.7975006   10.6892099    -7.2120709    -17.8959808   11.6290398    -12.0843296   132.8683014   
6475000100    -8.9958477    161.8365021   10.7441597    -7.4473791    -17.9503307   12.3217897    -12.2342796   134.1076050   
6500000100    -9.2837210    158.9465942   10.5600700    -7.5936432    -18.0244808   10.0386600    -12.3315001   129.9721069   
6525000100    -9.3997402    162.6271057   10.6824799    -7.3609982    -18.2663898   11.4287796    -12.6659203   131.6710968   
6550000100    -8.2966690    162.2492981   10.8414202    -9.9200678    -17.6528492   14.0374899    -11.7345400   137.4714966   
6575000100    -8.3430700    157.8908997   10.6054001    -10.8720503   -17.4827595   11.3197803    -11.3909702   132.3999023   
6600000100    -8.7789497    160.5708008   10.6822701    -9.7672892    -17.9341297   11.9886999    -12.2022600   133.4028931   
6625000100    -8.2859468    160.1923981   10.7299500    -11.2942200   -17.6271496   12.7783899    -11.6506500   135.1616974   
6650000100    -8.1675215    156.1174011   10.5452099    -12.6371403   -17.3528900   10.7231503    -11.2182999   131.8526001   
6675000100    -8.4281912    157.7758026   10.5935698    -12.0594301   -17.6581306   11.0382795    -11.7272396   132.5281982   
6700000100    -8.2920532    157.1493073   10.5777597    -12.7500401   -17.5995502   11.0221004    -11.6616297   132.3834991   
6725000100    -8.3766079    156.1714935   10.4857597    -13.1581402   -17.5784798   9.7236090     -11.5397396   130.4998016   
6750000100    -8.0401773    158.0355988   10.6300898    -13.7936201   -17.6158104   11.7311697    -11.7176800   133.3049927   
6775000100    -7.9448051    156.9371033   10.6082497    -14.5583296   -17.4792099   11.7088099    -11.4645596   133.7966003   
6800000100    -7.7357821    153.9631958   10.4788103    -15.8139696   -17.2297497   10.4590597    -11.1076403   131.8524017   
6825000100    -7.9969730    155.2431030   10.5216703    -15.5405703   -17.4339294   10.4614697    -11.4168596   132.1477966   
6850000100    -7.6301842    155.3114929   10.5466499    -16.6043606   -17.3226700   11.1995096    -11.1997995   132.8798981   
6875000100    -7.4237528    152.5814972   10.4334002    -17.9517708   -16.9673405   10.1975002    -10.6821499   131.5023956   
6900000100    -8.0927439    152.9329071   10.3947296    -16.5799007   -17.4381409   8.4269457     -11.4439497   129.2859955   
6925000100    -7.9270902    154.1938934   10.4878597    -17.1953106   -17.4726200   9.7603254     -11.4774904   131.1703033   
6950000100    -7.7432160    154.3233948   10.5136604    -17.8838196   -17.4482994   9.9618120     -11.4869299   131.7431946   
6975000100    -7.1739812    153.7427063   10.5653200    -19.8445301   -17.0929394   11.4910498    -10.8544502   133.9425964   
7000000100    -7.2067518    151.3213043   10.4312496    -20.4764004   -16.9897709   10.0882797    -10.7538795   131.5209045   
7025000100    -7.0738568    150.1040039   10.3800497    -21.4163208   -16.8472900   9.5969963     -10.5195704   131.0753937   
7050000100    -7.1942000    148.1983032   10.2273302    -21.8244705   -16.7453098   7.8304300     -10.3409500   128.3562927   
7075000100    -7.2952428    152.3627014   10.4827700    -21.4171391   -17.1939507   9.8106766     -11.0158195   132.2131958   
7100000100    -7.0513368    150.2991943   10.3624201    -22.5258102   -16.9255409   9.4572048     -10.4471703   130.4519958   
7125000100    -7.1557240    149.7308960   10.3576899    -22.5031109   -17.0299606   8.6569309     -10.8401699   130.0122986   
7150000100    -6.8898692    149.1941986   10.3839798    -23.7233391   -16.8733101   9.3168449     -10.6006603   131.0014038   
7175000100    -6.8185501    147.6974945   10.3327999    -24.5300598   -16.7898102   8.9347792     -10.4246998   131.4197998   
7200000100    -6.6694198    148.1119995   10.3565702    -25.4118805   -16.7405396   9.3368826     -10.1973801   131.4338074   
7225000100    -6.8097520    146.7149963   10.2801600    -25.3446503   -16.7091599   8.1700745     -10.3159199   128.8256073   
7250000100    -6.9563880    147.3964996   10.3543100    -25.4668903   -16.8861408   7.8878059     -10.5829802   129.9033966   
7275000100    -6.5460510    145.3762970   10.2425604    -26.9746304   -16.5706501   7.9113741     -10.0690002   128.9239044   
7300000100    -6.6171861    145.4443054   10.2532597    -27.3271503   -16.6202908   7.5670481     -10.1871405   128.3771973   
7325000100    -6.3199158    145.4120026   10.3053703    -28.8033409   -16.4773102   8.4981775     -9.8658247    130.4145966   
7350000100    -6.3112259    143.7691040   10.1789598    -29.5524006   -16.3719902   7.3432250     -9.6543884    128.0814972   
7375000100    -6.1399989    144.9627991   10.2583504    -30.1162395   -16.4356499   8.5205545     -9.7251062    130.0988007   
7400000100    -6.1035709    141.9136047   10.1284599    -30.5841999   -16.2273407   7.2702761     -9.5577030    127.0770035   
7425000100    -6.0717320    142.2142029   10.1518497    -31.4263706   -16.2320805   7.1721039     -9.5453224    127.4360962   
7450000100    -6.3883562    141.9514008   10.1674404    -30.6216507   -16.4881001   5.8175030     -10.0216703   126.9017029   
7475000100    -6.1289082    141.7315979   10.1538000    -31.8155594   -16.3432693   6.2070589     -9.7001801    126.4387970   
7500000100    -5.9164991    139.9098969   10.0615301    -33.0923195   -16.1180191   6.1063609     -9.3209286    125.9403992   
7525000100    -5.8503571    139.5126953   10.0720196    -33.8472710   -16.0835991   6.0678520     -9.3210001    125.7543030   
7550000100    -5.7071900    138.3547058   9.9952326     -34.6513901   -15.9984798   5.6871729     -9.3009415    124.8993988   
7575000100    -5.9264212    137.7743988   9.9688597     -34.5040588   -16.0056496   4.7491212     -9.2942686    124.1138000   
7600000100    -5.8836312    137.6775970   10.0192604    -35.4276886   -15.9924202   4.7297258     -9.1996746    124.8671036   
7625000100    -5.6809282    138.4024963   10.0538301    -36.3301811   -16.0728607   5.3579130     -9.1671152    125.7068024   
7650000100    -5.6165342    136.1286011   9.9224539     -36.9374199   -15.8588800   4.4379921     -8.9991989    123.3924026   
7675000100    -5.5298438    136.4658966   9.9997644     -37.6773491   -15.9252901   4.6441722     -9.0452271    123.9044037   
7700000100    -5.5015569    135.6835022   9.9691677     -38.1880188   -15.8818703   4.5080509     -8.9903135    123.4962006   
7725000100    -5.4410329    133.8076935   9.8067360     -38.8315392   -15.6936703   3.3274140     -8.7762127    121.2776031   
7750000100    -5.4274330    133.6517029   9.9094915     -39.3041306   -15.7755604   3.4621799     -8.8888617    121.8720016   
7775000100    -5.4361701    133.6484070   9.9592934     -40.0488281   -15.8068304   3.4349251     -8.9546595    122.9285965   
7800000100    -5.2490411    132.7881012   9.8710175     -41.3641510   -15.6491404   3.6000190     -8.5628319    122.7377014   
7825000100    -5.2690101    131.5778046   9.7798777     -41.4877396   -15.5658903   2.7497280     -8.4628410    120.2438965   
7850000100    -5.2499208    131.3455048   9.7983551     -41.9589882   -15.6093597   2.2454240     -8.6149616    119.8261032   
7875000100    -5.4151011    130.8587952   9.8563633     -41.9770317   -15.6713305   1.3212490     -8.7537222    119.5690994   
7900000100    -5.1034012    130.9403076   9.8369627     -43.6128082   -15.5957499   2.1220551     -8.4581566    119.9746017   
7925000100    -5.0048990    129.4129944   9.7961254     -44.3207588   -15.5010500   1.9132570     -8.3965292    119.6604996   
7950000100    -5.0461278    128.1784058   9.7430573     -44.7575302   -15.4339895   1.2307990     -8.3577337    118.7481003   
7975000100    -5.0859098    127.6663971   9.6945515     -45.1894798   -15.3749704   0.4721915     -8.2786579    117.5356979   
8000000100    -5.0334110    128.4371948   9.8453646     -45.8189316   -15.5528297   0.4045682     -8.4481049    118.5859985   
8025000100    -4.9985971    126.3732986   9.7171450     -46.5340614   -15.3441200   -0.0661701    -8.2893600    116.4614029   
8050000100    -4.9165492    126.6178970   9.7599516     -47.4058495   -15.3825703   -0.1563085    -8.2992458    116.9256973   
8075000100    -4.6828671    125.6477966   9.6282988     -49.1013107   -15.2338696   0.3705549     -7.9322419    117.1628036   
8100000100    -4.6248980    124.8367996   9.5856276     -49.5086288   -15.1996202   -0.1659328    -7.8616748    115.8352966   
8125000100    -4.6091771    124.4459991   9.6473322     -49.9127693   -15.2338600   -0.7806382    -8.0062447    115.5251007   
8150000100    -4.5359588    123.0628967   9.5191031     -50.8112984   -15.0899000   -1.1308380    -7.7975922    114.7475967   
8175000100    -4.5649500    121.5233994   9.4304819     -50.8043404   -15.0023298   -1.8677590    -7.6023269    112.8162003   
8200000100    -4.7214842    121.5115967   9.5786457     -51.0641403   -15.0762501   -2.8624079    -7.9440169    112.7757034   
8225000100    -4.5521932    121.8958969   9.6135445     -52.6314201   -15.1040401   -2.3988810    -7.7947721    113.7503967   
8250000100    -4.3702240    120.7520981   9.4958925     -53.6564102   -15.0395403   -2.3530209    -7.6252732    113.2360992   
8275000100    -4.4237781    120.1725998   9.5656176     -54.1405106   -15.0225601   -3.0067320    -7.6813102    112.5626984   
8300000100    -4.2680998    119.4692993   9.4800014     -55.3486290   -14.9915705   -3.1200731    -7.4886541    112.7832031   
8325000100    -4.2517872    118.5547028   9.4381313     -55.5237503   -14.9410696   -3.6516581    -7.4898682    111.1727982   
8350000100    -4.3058791    117.8016968   9.4631262     -56.0811195   -14.8677101   -4.3580999    -7.4721341    110.6179962   
8375000100    -4.1878920    116.8701019   9.3150091     -57.1341400   -14.8085804   -4.1812119    -7.2553658    109.9039001   
8400000100    -4.0670128    116.7986984   9.3615284     -58.3194618   -14.8545799   -4.4910660    -7.2043352    110.8195038   
8425000100    -4.0482731    115.4476013   9.3301086     -58.7644806   -14.7767200   -4.8603768    -7.1665692    109.3599014   
8450000100    -3.9724150    114.8656006   9.3067846     -59.9778290   -14.7628899   -5.0218139    -7.0584660    109.4879990   
8475000100    -4.0138669    114.1399002   9.2720928     -60.2024689   -14.6921101   -5.8645649    -7.1044402    108.1020966   
8500000100    -3.8421860    113.4415970   9.1627884     -61.1540184   -14.6666098   -5.7829919    -6.9048171    107.6708984   
8525000100    -3.8328929    111.8326035   9.1234417     -61.4136009   -14.5572796   -6.1601982    -6.8524008    106.5249023   
8550000100    -3.9077809    111.4545975   9.2334423     -61.8839607   -14.5865402   -7.2233491    -6.9152460    106.1887970   
8575000100    -3.7692750    110.8468018   9.1624203     -62.9818611   -14.5566101   -7.2823429    -6.7995028    105.3674011   
8600000100    -3.7520790    110.6053009   9.1131048     -64.3659821   -14.5841599   -7.5957012    -6.7092662    105.3936996   
8625000100    -3.6867080    109.1235962   9.1003284     -64.4527435   -14.4989700   -7.7628441    -6.7264509    103.7251968   
8650000100    -3.6023531    108.7269974   8.9898310     -66.2560196   -14.4900398   -7.8633418    -6.5640049    104.9141998   
8675000100    -3.5911591    107.8852997   8.9089794     -66.0226364   -14.4019299   -8.5252705    -6.4390678    102.9119034   
8700000100    -3.5499301    106.9285965   8.9609747     -66.6083679   -14.3803101   -8.9601040    -6.4896541    101.9352036   
8725000100    -3.5518000    105.9462967   8.9634104     -67.4897308   -14.3263502   -9.4116354    -6.5233679    101.8380966   
8750000100    -3.4679959    106.0115967   8.9454012     -69.3182373   -14.3786201   -9.8545437    -6.4652848    102.3648987   
8775000100    -3.4340191    104.8320999   8.8400497     -70.1107864   -14.3451300   -10.0566301   -6.3267159    101.8320999   
8800000100    -3.3765750    104.1510010   8.8107710     -70.5604477   -14.3162899   -10.5660801   -6.2212510    100.8039017   
8825000100    -3.4132609    103.2660980   8.7974434     -70.8800583   -14.2348604   -11.0813599   -6.1949091    99.2041092    
8850000100    -3.3233359    102.5139008   8.7811279     -72.1969070   -14.2405701   -11.1632500   -6.2121658    99.3865204    
8875000100    -3.3355589    101.8094025   8.7220678     -73.0110397   -14.1799803   -11.9045401   -6.1384840    98.9167633    
8900000100    -3.2935300    100.9170990   8.7385120     -73.5966492   -14.1382599   -12.2877998   -6.1566782    97.8197174    
8925000100    -3.2176559    100.1611023   8.6088419     -73.9812469   -14.1372900   -12.3975000   -5.9882288    96.9526291    
8950000100    -3.1680541    99.4328690    8.5457058     -75.4285431   -14.1163797   -12.8537502   -5.9671378    97.0322800    
8975000100    -3.1929541    98.4504623    8.6445360     -75.8885422   -14.0515699   -13.4484797   -6.0094128    95.5793686    
9000000100    -3.2335050    97.9803238    8.6559811     -77.3127594   -14.0065203   -14.1220999   -6.0601368    95.4665527    
9025000100    -3.0487039    97.4871063    8.3236246     -77.9483566   -14.0643196   -14.2279301   -5.7213750    95.8339691    
9050000100    -3.0295310    96.2156525    8.3761263     -78.1536636   -14.0132504   -14.6134300   -5.7321029    94.1053696    
9075000100    -3.0289860    95.8760223    8.3619699     -79.6000290   -13.9734497   -15.2279902   -5.7624412    93.8159637    
9100000100    -2.9914579    94.9656982    8.2235575     -80.3008270   -13.9610004   -15.3481503   -5.6143212    93.4982376    
9125000100    -2.9218309    94.1194992    8.1723881     -80.8797226   -13.9635696   -15.7204304   -5.5363841    92.7351303    
9150000100    -2.8564150    93.1662521    8.1814985     -80.9470291   -13.8962603   -15.8564301   -5.5056672    91.2114410    
9175000100    -2.8896210    92.6863632    8.1145077     -82.8529892   -13.8593998   -16.6068192   -5.5600581    91.7354889    
9200000100    -2.8823850    91.8830032    8.0020170     -83.3336487   -13.8306704   -17.0166607   -5.4087391    90.9316788    
9225000100    -2.7829189    90.9886703    7.9601488     -83.6325912   -13.8310003   -17.3019104   -5.3729162    90.1149673    
9250000100    -2.7894180    90.3263626    7.9379869     -84.4345779   -13.7899103   -17.8276005   -5.3296490    89.4632416    
9275000100    -2.7741890    89.4994965    7.8844519     -85.3821564   -13.7420998   -18.3898602   -5.2975230    89.0787964    
9300000100    -2.7157080    88.9783707    7.8198061     -86.6410065   -13.8052101   -18.9823895   -5.2711549    88.7179337    
9325000100    -2.6785729    88.1215668    7.7586632     -86.5304031   -13.7789402   -19.0282402   -5.1042099    87.4830170    
9350000100    -2.7326059    87.2058563    7.7845359     -88.8152695   -13.6744003   -19.5480900   -5.3501701    87.1983337    
9375000100    -2.6796980    86.6861801    7.5812840     -89.1615067   -13.6894999   -19.9845505   -5.1671629    86.9755783    
9400000100    -2.7238891    86.1628723    7.4719028     -90.3116074   -13.6080799   -20.5225792   -5.1809669    86.7313919    
9425000100    -2.5887749    85.6032028    7.4094071     -90.2212906   -13.6933603   -20.8222103   -5.0242310    86.0762024    
9450000100    -2.6067619    84.9306183    7.2950439     -91.1856308   -13.5994797   -21.5851498   -4.9752712    85.8147964    
9475000100    -2.4603021    84.2839737    7.2394862     -90.8712311   -13.6935997   -21.8225193   -4.8004360    84.6666183    
9500000100    -2.5234859    83.2268906    7.2043600     -92.2346802   -13.5556202   -22.2387009   -4.8548918    84.3067703    
9525000100    -2.4895129    82.4738388    7.2140031     -92.5946579   -13.5825300   -22.4388599   -4.7756391    83.0253525    
9550000100    -2.5422280    82.3735733    7.0183201     -93.7648697   -13.4909401   -23.8824596   -4.7583342    83.5820770    
9575000100    -2.4551721    81.6079330    6.9953699     -94.4479599   -13.5629396   -24.0455608   -4.6759868    82.7100296    
9600000100    -2.2911739    80.3916931    7.0008030     -94.4418335   -13.6957502   -23.5573807   -4.5731158    81.4824905    
9625000100    -2.4294341    79.9073334    6.8581319     -95.9854279   -13.5147600   -24.1833992   -4.6548700    81.4025879    
9650000100    -2.4120080    79.2910614    6.8160830     -96.7627563   -13.5049601   -24.2602100   -4.6622429    80.3361435    
9675000100    -2.3460021    78.4300537    6.7343712     -97.4799271   -13.4657202   -24.6594200   -4.6195521    80.2590485    
9700000100    -2.3830371    78.2523422    6.6100841     -98.0363312   -13.4948301   -25.8465500   -4.4731922    80.0572128    
9725000100    -2.2707181    77.5724182    6.5930600     -98.2102966   -13.4724302   -26.4326801   -4.3951812    79.2591705    
9750000100    -2.2540650    77.0135727    6.4170418     -98.7703934   -13.4912500   -26.6266193   -4.3555579    79.3761063    
9775000100    -2.2291319    75.8133926    6.4692688     -99.5910873   -13.5791101   -26.7633400   -4.2418098    77.9249268    
9800000100    -2.2030830    75.0988922    6.4074931     -100.1383972  -13.5025101   -26.5774403   -4.2777529    76.7640610    
9825000100    -2.1441500    74.9969864    6.3338370     -100.3047028  -13.5067997   -27.4636192   -4.1258578    76.6367111    
9850000100    -2.1685259    74.0498886    6.2761488     -101.9222031  -13.4434299   -27.2539501   -4.2754130    75.4879990    
9875000100    -2.1484461    73.4884415    6.1385412     -102.3273010  -13.3531504   -28.2937908   -4.1928840    75.9321518    
9900000100    -2.0914860    72.6630783    6.0997701     -103.1983032  -13.4128199   -27.8660793   -4.1984429    74.8042374    
9925000100    -2.0328989    72.1924133    5.9860001     -103.5156021  -13.4229498   -29.4192696   -4.1338639    74.8743668    
9950000100    -2.1854589    71.5735931    5.8364282     -104.6091003  -13.2853003   -28.9275703   -4.1486292    74.6585770    
9975000100    -2.0885260    71.5369873    5.7870402     -104.1645966  -13.2470703   -30.0244102   -3.9640601    74.1633682    
10000000100   -1.9940079    70.6018372    5.7717371     -104.9241028  -13.3325100   -30.6754303   -3.8915141    73.5374832    
10025000100   -2.0258060    69.9033127    5.6697540     -105.6747971  -13.3280001   -30.4658203   -3.9003379    72.6700363    
10050000100   -1.9762890    68.5421677    5.7313838     -106.7725983  -13.3774700   -30.9088898   -3.8567209    71.5424194    
10075000100   -1.9618829    68.6206665    5.5895758     -107.0557022  -13.3365002   -31.0024109   -3.8072500    70.8992767    
10100000100   -2.0235031    67.9733887    5.5235801     -107.9548035  -13.2316904   -31.5139904   -3.7367809    70.5322113    
10125000100   -1.9320560    66.9047928    5.5430040     -108.8227005  -13.3113804   -31.9764709   -3.7745180    69.6233826    
10150000100   -2.0299959    66.7709732    5.2348752     -109.6917038  -13.1401300   -32.0570488   -3.9137790    70.2808609    
10175000100   -1.9969310    66.3252335    5.2199092     -109.9729004  -13.2574596   -33.1778183   -3.7066610    69.7199173    
10200000100   -1.9552950    65.8014526    5.1541438     -110.4646988  -13.1052999   -33.0409584   -3.7760439    69.0280609    
10225000100   -1.8982331    65.0912933    5.1141009     -111.1576004  -13.0906897   -33.6790009   -3.7184730    68.4123535    
10250000100   -1.9075100    63.8389587    5.0430360     -112.5111008  -13.1915503   -33.9994202   -3.7365170    68.0263977    
10275000100   -2.0245650    64.2761765    4.7706141     -112.7651978  -13.0431004   -34.4895096   -3.7014310    68.4825363    
10300000100   -1.8714490    63.7375984    4.8449469     -112.6312027  -13.1209297   -35.8196411   -3.5073509    67.5400085    
10325000100   -1.8259990    63.2007217    4.7673111     -113.0521011  -13.1003399   -35.2374802   -3.5439630    66.7588806    
10350000100   -1.8368530    61.7848511    4.7479830     -114.5860977  -13.2323198   -35.0052109   -3.5133300    65.4625702    
10375000100   -1.8700950    61.6460419    4.5921440     -114.5411987  -12.9748096   -35.6394005   -3.5063980    65.8530807    
10400000100   -1.8097920    60.6513100    4.6313429     -115.4257965  -13.1141005   -35.6915092   -3.3737750    64.6687469    
10425000100   -1.8863400    59.6860809    4.4232860     -116.8982010  -12.9536104   -35.1629219   -3.6443069    64.5311127    
10450000100   -1.7804101    59.8151398    4.4113050     -116.3677979  -13.0811596   -37.0030708   -3.3521891    64.2820206    
10475000100   -1.8246540    58.6227798    4.3250890     -117.5791016  -13.0000095   -36.5226288   -3.4036019    63.5903091    
10500000100   -2.0761321    59.2239113    3.9334669     -118.4328003  -12.6562004   -35.8049889   -3.6224110    63.7265396    
10525000100   -1.8111041    59.8456001    4.0633130     -117.3787994  -12.7892504   -38.7482605   -3.3562579    63.1184502    
10550000100   -1.8898050    57.9283218    3.8791549     -118.9590988  -12.5900002   -37.6114693   -3.5358081    63.3582497    
10575000100   -1.8455840    58.1336288    3.8193200     -119.0447006  -12.8082800   -40.1979599   -3.2741649    63.2817383    
10600000100   -1.8550330    57.0744781    3.7768641     -119.4288025  -12.7012300   -39.5585289   -3.2367959    62.9653015    
10625000100   -1.7598740    57.5368996    3.8057170     -119.8181000  -12.8730602   -41.8083801   -3.0523450    61.2884293    
10650000100   -1.7274870    56.1246605    3.6976249     -120.6156006  -12.8543301   -40.2319489   -3.1556110    60.8587608    
10675000100   -1.7096410    56.1581917    3.5465930     -120.6158981  -12.6973200   -41.0991898   -3.1811869    61.1795616    
10700000100   -1.7534680    55.2699509    3.5178061     -121.7135010  -12.6677504   -41.1680107   -3.1828971    59.9736290    
10725000100   -1.8289570    54.5670586    3.4307101     -122.2186966  -12.5395603   -42.1503410   -3.0797541    60.1142387    
10750000100   -1.8625500    54.1231194    3.2779500     -123.2966003  -12.6431303   -41.8056602   -3.1384020    59.2345886    
10775000100   -1.9293680    54.2369118    3.0940261     -123.4290009  -12.4655399   -43.1152191   -3.1409869    59.5806808    
10800000100   -1.7066760    53.5861092    3.1138690     -123.0955963  -12.7384005   -42.3544807   -2.9676471    59.2450485    
10825000100   -1.7089840    54.1421013    3.0946181     -123.0154037  -12.3938303   -44.3510017   -2.8788700    58.4621696    
10850000100   -1.6035290    52.9176102    3.1098320     -124.2027969  -12.4333696   -44.2730789   -2.9925070    57.1095009    
10875000100   -1.5091960    51.8620110    3.0965309     -125.2916031  -12.7243900   -46.4378700   -2.9411161    56.8462181    
10900000100   -1.5993680    51.5689888    2.9368789     -124.7354965  -12.3621902   -45.5963783   -2.8230000    57.5238609    
10925000100   -1.5784750    50.9066391    2.9461250     -126.1050034  -12.4053297   -45.2829819   -2.8483961    55.3851814    
10950000100   -1.6744630    51.8189583    2.7268310     -126.0779037  -12.0656204   -47.9787102   -2.9321699    56.2050781    
10975000100   -1.5708510    49.8947792    2.6655941     -126.7557983  -12.1745901   -47.5114784   -2.9239180    56.5545998    
11000000100   -1.6273530    50.0553818    2.6273949     -127.3219986  -12.3195801   -51.5198708   -2.7632959    56.3514900    
11025000100   -1.5754750    49.3710594    2.6139281     -128.3498993  -12.5917702   -49.9097900   -2.6963880    54.0620613    
11050000100   -1.5093070    49.2089806    2.4651721     -128.3294983  -12.1610298   -51.2607384   -2.8852589    55.1369705    
11075000100   -1.4413760    48.0813789    2.3330481     -129.2642059  -12.5431099   -50.0489616   -2.8821340    54.6901016    
11100000100   -1.4973400    48.3548203    2.2847309     -128.7032928  -12.2249098   -51.4595718   -2.7044489    54.8940811    
11125000100   -1.5554709    48.2282600    2.1967850     -128.8701935  -12.1896000   -51.1776619   -2.6153691    54.1944885    
11150000100   -1.5943010    45.9828796    2.2020929     -131.1156006  -12.1690598   -52.7220383   -2.6771920    52.9341011    
11175000100   -1.7498360    46.9763184    2.0216291     -131.2386932  -12.4206104   -55.8078003   -2.5226109    53.1399994    
11200000100   -1.4528830    46.8241310    2.0675700     -130.8921051  -12.2544298   -57.1571198   -2.5188470    53.3620300    
11225000100   -1.5117750    46.9188995    1.8730160     -131.6166992  -12.4018898   -57.5401917   -2.5983570    52.9923782    
11250000100   -1.4858010    45.1514893    1.8279420     -132.1638031  -12.7813597   -57.3224411   -2.4150319    53.3907204    
11275000100   -1.5532740    44.8751984    1.8406790     -133.7691956  -12.5208197   -58.3195305   -2.4831600    50.7771988    
11300000100   -1.6560050    45.0773811    1.5117620     -133.3798065  -12.5072803   -58.1645508   -2.5630360    52.6030197    
11325000100   -1.5459960    44.9961700    1.4336610     -134.7117004  -13.3209295   -59.2954407   -2.4213550    50.9679794    
11350000100   -1.5089231    44.9539413    1.3753660     -133.7126007  -13.0241098   -58.4014015   -2.3178959    51.2876015    
11375000100   -1.2985500    43.9550018    1.3044790     -133.4759979  -12.6432199   -58.9863091   -2.5067680    52.3216400    
11400000100   -1.3766381    42.9140205    1.3168000     -135.4566040  -12.5347099   -59.0908318   -2.5317221    50.1276894    
11425000100   -1.4951290    44.0734406    1.0335410     -134.4120941  -13.1145296   -60.4225006   -2.1931250    52.0188408    
11450000100   -1.3995900    43.7590904    1.1601861     -134.9241028  -12.6794500   -61.9789581   -2.1536610    49.7584190    
11475000100   -1.3184580    41.9121208    1.1519830     -137.3952942  -13.6967697   -65.2366028   -2.1820419    48.9648514    
11500000100   -1.2173630    41.7096100    0.9796548     -136.1580048  -13.2821598   -58.6554298   -2.1463611    49.4630508    
11525000100   -1.3304780    40.7431297    0.9264775     -137.5827026  -13.3120604   -59.3391685   -2.0818150    47.8767395    
11550000100   -1.3744140    40.3187294    0.8563868     -138.0240021  -12.6030397   -61.5757599   -2.2933011    47.1255112    
11575000100   -1.2659670    40.9102707    0.5921463     -137.7837982  -13.0736303   -60.6622810   -2.2967319    48.3960609    
11600000100   -1.4093961    40.2577286    0.4577581     -138.2447968  -13.2249899   -59.0245895   -2.1392930    47.6816711    
11625000100   -1.5492730    40.2209892    0.4916170     -138.1033020  -12.6249199   -63.8084602   -2.1043141    47.4705887    
11650000100   -1.4405130    41.2726898    0.1545658     -138.2041016  -13.2022896   -61.9287415   -2.3508229    47.9946785    
11675000100   -1.2201040    40.9153709    0.3261320     -138.0767975  -12.9583397   -63.7993011   -2.1708021    47.7178612    
11700000100   -1.1871270    38.3595886    0.3734198     -138.5747986  -12.3728600   -63.2023582   -2.0724039    47.2120285    
11725000100   -1.2394960    39.2233200    0.2488190     -140.1349945  -13.3655701   -69.7554626   -2.1010489    47.1960602    
11750000100   -1.4030340    38.2925110    0.1227608     -140.3056030  -13.0997601   -66.7830887   -1.9229620    46.6715317    
11775000100   -1.1327640    38.2660599    0.0363860     -140.8202972  -13.9213696   -66.7924423   -1.9554280    46.5669098    
11800000100   -1.2581770    37.8482590    -0.0948018    -140.5357056  -13.4776802   -63.2759285   -1.8852890    46.2975197    
11825000100   -1.2749190    37.2897606    -0.1766867    -142.2126007  -13.7345896   -67.6782303   -1.9889430    45.7543793    
11850000100   -1.1658640    37.1366386    -0.1689075    -141.1399994  -13.0103102   -64.1254807   -1.7942981    44.5476608    
11875000100   -1.2567770    36.6108818    -0.3387480    -142.6931000  -13.8085003   -71.9124832   -2.1206570    45.9235001    
11900000100   -1.1677700    36.7860184    -0.4397991    -142.9759064  -13.7756596   -67.4419479   -2.0577469    44.5085411    
11925000100   -1.1477950    36.8735886    -0.4989602    -142.5818939  -14.1472797   -68.8906937   -1.8144790    46.0426216    
11950000100   -1.3581300    36.0928383    -0.6266420    -143.3148956  -13.4991999   -66.6206970   -1.8231140    43.9294395    
11975000100   -0.9818175    36.9431190    -0.5602915    -142.7297974  -14.1978998   -71.5939178   -1.7951540    45.7549782    
12000000100   -1.0340641    34.7674904    -0.5877059    -144.4718018  -14.5953102   -71.6065521   -1.6669730    44.8601608    
12025000100   -1.2911770    35.7595711    -0.9505984    -144.9983063  -14.9139700   -68.8918762   -1.7547489    44.3022804    
12050000100   -1.2907740    34.0368805    -1.1019950    -145.3215027  -14.0464602   -65.1526871   -1.8326120    43.4395409    
12075000100   -1.2830120    36.6230202    -1.1862839    -143.8518066  -13.8830700   -67.4449997   -1.7763150    43.5881805    
12100000100   -1.0443040    35.1187286    -1.0789330    -144.5359955  -13.6627598   -70.0888367   -1.8688450    43.2010689    
12125000100   -1.0805449    34.9828110    -1.3109590    -144.6746979  -14.0312099   -65.4875565   -1.7169360    43.1174812    
12150000100   -0.8911460    33.3927383    -1.1620800    -144.6459961  -13.3312998   -67.6671906   -1.6981471    42.8924904    
12175000100   -1.0326530    32.9427605    -1.2225260    -145.0628052  -13.2200899   -68.5907516   -1.6063340    42.1310387    
12200000100   -1.0721000    32.5341301    -1.3506221    -146.3399048  -14.0564003   -69.3232269   -1.5423720    42.8176003    
12225000100   -1.0273110    32.8290291    -1.3572780    -145.9116974  -13.2706699   -70.3390884   -1.5597640    41.4278908    
12250000100   -1.2655751    32.1069908    -1.6322870    -147.2313995  -14.0740604   -70.7370300   -1.5569940    41.8844910    
12275000100   -0.9915463    32.7970505    -1.8263420    -147.2602997  -14.1716604   -65.8469086   -1.7254000    40.9624481    
12300000100   -0.8323218    31.3988705    -1.6513380    -145.6291962  -12.9150600   -70.0532990   -1.7227670    42.0837708    
12325000100   -1.2482800    31.0038795    -1.8547610    -148.5773010  -14.3236704   -73.2833633   -1.5496200    41.7019501    
12350000100   -1.0327750    31.5963802    -1.9208720    -147.7534027  -14.3344297   -71.2711334   -1.5328950    42.1379509    
12375000100   -0.9984487    29.5967407    -2.1161151    -147.9770966  -13.3946304   -66.9462891   -1.6469260    40.9036598    
12400000100   -0.9833177    30.5128403    -1.9651960    -148.0946960  -13.9427996   -72.9167633   -1.4509420    41.2499886    
12425000100   -1.0962980    30.2523594    -2.2393980    -148.7117004  -13.9693899   -67.8083496   -1.3759980    40.3240013    
12450000100   -0.9326862    30.0885201    -2.1541629    -148.2117004  -13.2653399   -72.0962906   -1.5828561    39.9625282    
12475000100   -0.9971963    29.5030003    -2.3583901    -149.5930939  -14.0675402   -69.0739136   -1.4235899    40.1171684    
12500000100   -0.9490519    29.8533096    -2.4422779    -148.1199036  -13.6573095   -69.4398117   -1.3860140    41.4513817    
12525000100   -0.9669839    29.4435005    -2.2500970    -149.5550995  -13.5416698   -75.0272598   -1.3330290    38.9619789    
12550000100   -1.0027339    28.8154202    -2.4997439    -149.3211060  -13.4477301   -71.8251572   -1.3636880    39.5939789    
12575000100   -1.1266650    29.8046303    -2.5394189    -150.1188965  -14.3184996   -79.9899063   -1.4387439    41.4012604    
12600000100   -1.0088000    27.6750202    -2.7190750    -151.2848053  -13.8586302   -71.5816269   -1.3652329    38.2161293    
12625000100   -1.0177970    28.3403492    -2.8346119    -151.0713959  -13.6589203   -72.8672867   -1.4973900    38.0512505    
12650000100   -1.2581760    26.8723698    -2.8260450    -150.2151031  -12.8899298   -79.2680206   -1.5732340    39.8954582    
12675000100   -1.0893340    29.6749496    -2.8302629    -151.1790009  -14.1336203   -80.9652023   -1.4032180    39.0220795    
12700000100   -1.0117249    29.7369404    -3.0600519    -151.2483978  -14.2142696   -77.0267563   -1.4639210    38.8084908    
12725000100   -0.9042825    27.9408607    -3.0903239    -150.1882019  -13.1810999   -76.1333466   -1.5459690    38.7254219    
12750000100   -0.9885724    28.5686607    -3.1835041    -150.9667969  -13.8505602   -76.4649734   -1.4202850    39.1022682    
12775000100   -0.9633090    27.5074005    -2.9670510    -151.7176971  -13.7097597   -82.1969376   -1.2620651    38.8911209    
12800000100   -1.1044030    27.7793598    -3.3159120    -152.9143066  -14.4996099   -80.0768433   -1.3929970    38.8779297    
12825000100   -0.8983336    27.0663891    -3.3935699    -153.5617981  -14.2008400   -77.9021225   -1.5002640    37.1553993    
12850000100   -1.1367871    26.9730206    -3.8584459    -152.3359070  -13.9764795   -73.2842331   -1.6144650    38.4075317    
12875000100   -1.1852140    28.6881199    -3.5155251    -151.3551025  -13.5083199   -83.2833481   -1.5732840    39.0034790    
12900000100   -1.1204890    29.5154095    -3.4834969    -151.8455963  -14.1554203   -87.0656433   -1.5167780    40.1016693    
12925000100   -1.0650361    26.2486095    -3.6168230    -153.0540009  -14.0761003   -81.8128128   -1.2914060    39.3821602    
12950000100   -1.1489990    26.4504604    -3.7719331    -153.6938019  -14.1643200   -81.3344421   -1.2905680    38.5331688    
12975000100   -0.9705316    27.4168701    -3.7711470    -152.6461945  -13.9020700   -82.0378723   -1.3732480    38.6855698    
13000000100   -0.9774325    26.1142807    -3.8949800    -154.2763062  -14.5116100   -83.5870667   -1.4223560    39.3637619    
13025000100   -1.0978000    27.1438408    -4.1567540    -154.5391998  -15.0296202   -80.0422363   -1.3120960    38.8034210    
13050000100   -0.8729645    27.4594307    -4.2188120    -154.7875061  -14.8307199   -78.4472427   -1.4956020    37.4608116    
13075000100   -0.9928387    26.3138103    -4.3026028    -152.8394012  -14.0614204   -81.2204285   -1.5141430    40.4049988    
13100000100   -1.2308860    27.8579597    -4.2755442    -153.6022034  -14.8708296   -86.0423965   -1.3295580    40.6036911    
13125000100   -1.2277440    27.2224808    -4.3502598    -154.5469055  -14.8309698   -85.9146271   -1.4039119    39.7343407    
13150000100   -1.1539270    27.6723099    -4.4799609    -155.4745026  -15.5731897   -83.7911224   -1.2418840    39.3416290    
13175000100   -0.8889372    27.6611404    -4.3546548    -154.6819000  -14.8521900   -86.6350174   -1.4101040    39.3001595    
13200000100   -1.1775891    26.7040100    -4.6288872    -154.5565948  -14.4952698   -84.9955292   -1.4844930    39.4207916    
13225000100   -1.1555830    26.4526100    -4.4838648    -155.1177063  -14.8507900   -89.2442169   -1.3377039    40.1050491    
13250000100   -1.2489500    28.2092800    -4.8639870    -154.9956970  -15.1542797   -83.4011078   -1.3110310    39.1686287    
13275000100   -1.2005250    27.9289608    -4.8320479    -155.8708038  -15.5753403   -87.9420700   -1.3893310    40.4920311    
13300000100   -0.9137750    27.7147999    -4.8623071    -156.0223999  -15.7700300   -83.2517624   -1.1675520    39.5984497    
13325000100   -1.1008130    27.1798000    -4.9599600    -155.6923065  -15.2943401   -85.2938004   -1.2914160    40.1263199    
13350000100   -0.8828588    27.2768993    -5.0501709    -155.9725037  -15.4943705   -83.8119812   -1.2755570    39.8282585    
13375000100   -1.1284580    27.4835491    -5.0571728    -156.4689941  -15.9175501   -87.6296921   -1.1649530    41.0600319    
13400000100   -0.9082737    27.8742695    -5.3709030    -154.4835968  -15.0972204   -79.1927567   -1.2444730    40.5190697    
13425000100   -0.9880884    27.8169899    -5.2848120    -157.3090973  -15.9950304   -87.7355728   -1.4926430    39.3554192    
13450000100   -1.0196960    26.3667393    -5.5937848    -157.6737061  -16.3047791   -81.0420227   -1.3399340    40.7786102    
13475000100   -1.1919791    27.6926403    -5.5732341    -153.2975006  -14.5420904   -82.5634689   -1.3438340    41.3306694    
13500000100   -1.1342400    27.0887909    -5.7449131    -154.4199066  -14.8821697   -81.0448837   -1.3488801    41.3564796    
13525000100   -1.0584630    29.0015907    -5.5369458    -155.7586975  -15.8129101   -86.5353928   -1.2017800    41.3138885    
13550000100   -0.8682442    30.0001602    -5.6317878    -155.0697937  -15.9587498   -83.8808670   -1.2048050    41.5586891    
13575000100   -1.1451610    25.3916302    -5.6467261    -156.7467957  -15.1084099   -85.1091537   -1.1839350    39.9026909    
13600000100   -0.9425295    28.3421192    -5.8882818    -155.5205994  -15.6026201   -83.1896133   -1.3397130    41.4403610    
13625000100   -1.0288900    29.3868198    -5.8452449    -155.5858002  -15.7681503   -85.8882065   -1.2356000    41.5838203    
13650000100   -0.8517358    29.1428699    -5.8325572    -154.1047974  -14.8610697   -83.3066635   -1.2270420    40.7820015    
13675000100   -0.8074500    28.5257092    -5.6739869    -157.7709961  -16.3893509   -93.1361465   -1.3428180    41.8237305    
13700000100   -1.1687500    28.3537197    -6.3004532    -156.3161926  -15.8277903   -80.9306717   -1.2335210    41.5710602    
13725000100   -0.9866578    27.9963398    -5.8217959    -154.5561981  -14.7166100   -89.9594727   -1.2879670    42.3433304    
13750000100   -1.1706520    27.5155106    -5.9950309    -156.5263062  -15.5579996   -89.2999115   -1.0816470    42.0055809    
13775000100   -1.1573030    30.0108509    -6.1825399    -156.2505951  -16.0851498   -86.1565170   -1.0361130    41.3454208    
13800000100   -0.7779682    28.0786705    -6.2793751    -156.0077057  -15.2141104   -83.8949432   -1.3482980    40.5162697    
13825000100   -1.2398640    29.7402096    -6.1902170    -154.2599945  -14.8947496   -90.3974915   -1.4250560    42.6903305    
13850000100   -1.0317340    29.5461807    -6.2120910    -158.8769073  -17.0604801   -95.8203735   -1.4582680    44.1319695    
13875000100   -1.0077010    29.3453693    -6.5047712    -154.8220978  -15.6766300   -84.9785233   -1.1898540    44.2134705    
13900000100   -0.9726764    30.1354008    -6.4312282    -155.6567993  -16.1460991   -86.5114136   -0.9760150    44.0610504    
13925000100   -1.0093820    30.5226707    -6.3767719    -159.6215057  -18.0864105   -93.0805435   -1.0534940    43.9307289    
13950000100   -1.0409620    29.8992290    -6.7840552    -158.3376007  -17.1727791   -83.6080399   -1.1171290    43.2319298    
13975000100   -0.9304793    29.3630791    -6.7698069    -158.1304016  -16.7206402   -83.4063034   -1.1454610    42.6015511    
14000000100   -0.7399670    30.6612492    -6.7909169    -154.9073029  -15.6771898   -81.4848022   -1.2283850    43.4311790    
14025000100   -1.0467460    28.8184700    -6.8194098    -155.8894958  -15.1736202   -85.6017380   -1.4207309    41.5324402    
14050000100   -1.0609820    30.6485596    -6.5651140    -158.4792023  -17.0636501   -96.7610474   -1.3517430    45.7332306    
14075000100   -1.3496341    31.8534794    -6.8864279    -155.2133026  -15.9568996   -89.5273972   -1.2448950    44.8886719    
14100000100   -1.1030470    31.9467793    -6.6532030    -156.6127014  -15.9320602   -93.9663925   -1.3953710    43.4103394    
14125000100   -0.8873572    30.9885006    -7.1685052    -157.9909973  -17.1926804   -87.3934937   -1.5555480    46.2920685    
14150000100   -1.0703530    30.9296303    -7.2046108    -157.0812073  -16.6394691   -85.5122604   -1.4259920    45.3903999    
14175000100   -1.1500490    30.6896896    -6.8914361    -155.7530060  -15.7156897   -91.6994781   -1.3267820    45.6820297    
14200000100   -1.3122580    34.7276306    -7.0028229    -157.7429047  -17.3568707   -97.6443405   -1.4153020    46.5179901    
14225000100   -1.1476671    32.1030388    -7.2776351    -156.6947021  -16.6530800   -88.0351105   -1.3424250    46.1325493    
14250000100   -0.9784724    33.1919594    -7.1629291    -158.4530945  -17.7132301   -94.7595062   -1.5876460    47.7889595    
14275000100   -1.2325900    31.4763908    -7.2881622    -155.8833008  -16.3258801   -86.9315796   -1.0951500    46.6223717    
14300000100   -1.1765881    33.2769089    -6.9769182    -158.6683960  -17.0684605   -97.8136673   -1.4125000    45.8619194    
14325000100   -1.2533650    32.6885300    -7.3426600    -158.8235016  -17.6334991   -94.0827637   -1.4529181    47.8874817    
14350000100   -1.1579800    35.6063690    -7.7641549    -159.0872040  -18.9181004   -84.3788834   -1.3267241    47.4981499    
14375000100   -1.1904430    35.5036011    -7.5870299    -155.3040924  -16.7028008   -86.9965668   -1.4916151    47.8077087    
14400000100   -0.9094964    36.1543503    -7.3893738    -159.1172028  -18.8001194   -93.6055298   -1.3108280    49.4687500    
14425000100   -1.0890170    34.8409309    -7.5388069    -158.7521973  -18.5053692   -90.5095215   -1.2111250    49.9895210    
14450000100   -0.9480119    34.8526802    -7.4951148    -160.0460052  -18.9842701   -92.1625824   -1.2379510    49.5080795    
14475000100   -1.2307611    36.3725204    -8.0820417    -158.7023926  -18.6050091   -83.3755875   -1.4894331    48.8630486    
14500000100   -1.0048120    38.7754097    -8.2739162    -156.9900055  -19.1846008   -76.2954330   -1.1340290    51.8564415    
14525000100   -0.6021423    36.8281288    -7.9539828    -158.5536041  -19.3419991   -77.1102676   -1.0189110    50.5278511    
14550000100   -1.1394870    35.6617813    -8.3455591    -160.9985046  -19.7254391   -77.6931229   -1.2506410    49.5401001    
14575000100   -1.0223200    37.7826195    -8.6340494    -156.4055939  -17.9550991   -70.8948364   -1.2860850    49.8880386    
14600000100   -0.8613017    38.0589600    -8.4248133    -155.5234985  -18.1397896   -72.7190628   -1.1257160    51.7706909    
14625000100   -0.9149257    36.4754715    -8.2125721    -156.6107025  -18.2084808   -77.6389618   -1.0791650    52.0964088    
14650000100   -0.9806364    37.0468483    -8.7859068    -155.6864014  -17.7552109   -67.1107407   -1.0306619    51.3301086    
14675000100   -0.8121977    37.9132805    -8.2110119    -154.6517029  -17.3932705   -78.2692795   -1.1805490    52.0868492    
14700000100   -1.0525020    36.5834618    -8.2403326    -155.7257996  -17.2806892   -79.9517136   -1.2390260    50.8765984    
14725000100   -0.7667319    38.1905212    -8.4055223    -158.4015961  -19.3217697   -75.2140121   -1.1153040    52.6279716    
14750000100   -0.7707281    39.2971916    -8.4850121    -155.8406067  -18.1491108   -72.7216873   -1.0652670    52.1500092    
14775000100   -0.8161462    39.0571289    -8.6349525    -154.2653961  -17.1516304   -72.7525482   -1.3752830    51.5602112    
14800000100   -0.7740116    38.5728798    -8.3369598    -156.8146973  -18.2796097   -78.6847229   -1.3217010    52.7920189    
14825000100   -0.8358490    38.8079605    -8.5236378    -153.5043945  -17.2990704   -74.8972626   -1.1599270    54.7592392    
14850000100   -0.8358490    40.1803284    -8.6809082    -155.2093048  -18.1817894   -69.2969894   -0.8791041    53.9808311    
14875000100   -0.8527483    39.3144608    -8.7243710    -155.9922028  -17.7442398   -69.5850830   -1.0269880    51.9234314    
14900000100   -0.9308140    38.6651001    -8.3207407    -154.4895020  -16.9963608   -78.2948227   -1.0832020    52.6404419    
14925000100   -0.9045740    38.9634705    -8.6450262    -154.5104065  -17.6198597   -73.2344208   -1.0434810    54.9067612    
14950000100   -1.1919700    39.5655899    -8.8006058    -157.2212982  -18.6135006   -74.0034866   -1.1876950    54.4423790    
14975000100   -0.9266136    40.4174690    -8.7901402    -154.6450043  -17.6140499   -70.3019333   -1.0301460    54.1819115    
15000000100   -0.9751866    40.2551994    -8.6569510    -155.1900940  -17.5913696   -71.7675323   -0.9616591    53.6756897    
15025000100   -0.8529565    40.7434616    -8.4753695    -156.7221985  -17.9532204   -78.7711029   -1.5491650    53.0448303    
15050000100   -0.9017156    42.2004013    -9.0850792    -152.5415039  -17.2534809   -65.6791916   -1.0624510    55.8489304    
15075000100   -0.8594552    40.9197083    -8.1613264    -153.4465027  -16.8212795   -79.7182770   -1.0252120    54.6428413    
15100000100   -0.9961287    40.5817413    -8.6580982    -158.5453033  -18.9622002   -75.2309036   -1.2926790    54.9529800    
15125000100   -0.8752596    42.1941719    -8.7597980    -154.5892029  -17.8112698   -72.1051636   -1.2759500    56.8050613    
15150000100   -0.8948739    42.7857399    -8.8861742    -155.4447021  -17.7711506   -69.0628128   -1.1987320    54.6809502    
15175000100   -1.0788220    41.4158211    -8.8530321    -155.7019043  -17.9214497   -69.6466064   -1.0134830    56.3760185    
15200000100   -0.7763374    42.8549805    -8.5082550    -155.3258972  -18.0136204   -73.1916199   -1.0388570    56.6790695    
15225000100   -0.8959849    42.4143791    -8.5981808    -155.3941040  -17.6075497   -73.3368301   -1.1388870    55.4186096    
15250000100   -1.1455640    43.1614609    -8.8369102    -156.7270966  -18.3112698   -69.3209610   -1.0429680    56.2072983    
15275000100   -1.0723530    42.8287888    -9.0929050    -154.8009033  -17.3794003   -67.0767899   -1.2465971    56.4916382    
15300000100   -1.1444510    44.1436310    -8.7708273    -152.8412018  -16.9396496   -72.5037613   -1.2393800    57.3599396    
15325000100   -1.0915010    44.1156311    -9.0407019    -154.8029938  -17.3948898   -68.4570236   -1.3664390    56.1730919    
15350000100   -0.8006619    44.1764984    -9.0845938    -156.7252045  -18.3690205   -63.7077103   -1.2482060    58.1646690    
15375000100   -1.0970170    41.7154503    -8.9332008    -155.6324005  -17.6865292   -70.2600327   -1.3035600    59.4638901    
15400000100   -1.2321130    46.3586502    -9.4660654    -155.8515015  -18.2270699   -60.9386597   -1.2799751    58.2432213    
15425000100   -0.9187695    45.6352005    -8.8891811    -153.7471008  -17.4944000   -67.3185120   -1.2182050    59.6098099    
15450000100   -0.9990435    45.7505493    -8.8820801    -158.1446991  -19.0981903   -68.2482300   -1.3641320    58.7654114    
15475000100   -0.9335331    45.2150497    -9.0399227    -155.0355072  -17.5081100   -64.0721436   -1.2418990    58.2457199    
15500000100   -1.2808940    46.7624702    -9.5662737    -153.6266937  -17.2725201   -61.6592484   -1.5266370    59.6955605    
15525000100   -1.0044110    45.4760017    -9.6702728    -155.4378052  -17.3196602   -56.6691704   -1.5807290    59.0485115    
15550000100   -1.3545090    47.3392410    -9.4814539    -156.6362000  -18.9203205   -60.4474487   -1.5202190    62.7275200    
15575000100   -0.9158571    47.4799004    -9.1499472    -152.6475067  -17.4171505   -61.4248085   -1.2268240    62.4782410    
15600000100   -0.8428995    45.9953499    -9.1761551    -152.4277954  -16.5613308   -58.7407799   -1.0833440    61.2436600    
15625000100   -1.0589390    46.9605293    -9.3082829    -152.3081055  -16.4112892   -58.8662987   -1.0963171    60.4386597    
15650000100   -1.2836400    47.0964584    -9.4696388    -157.7176056  -18.4912491   -57.6946182   -1.3752890    61.6422691    
15675000100   -0.9780241    48.3953209    -9.1876993    -151.8800964  -16.8011608   -60.1415405   -1.2912620    62.5985413    
15700000100   -1.0024390    47.5717812    -8.9195461    -154.8730927  -17.7049103   -62.4415588   -1.1612980    63.1112213    
15725000100   -1.2257560    47.6004105    -9.4646425    -154.6194000  -16.8655701   -56.3933792   -1.2450891    60.9001198    
15750000100   -0.8602228    48.5409317    -9.2608957    -149.0081940  -15.7456703   -56.0605583   -1.0540800    63.8311615    
15775000100   -1.0400660    48.2202797    -9.0243263    -152.4664001  -16.5370693   -59.7666512   -1.1048861    62.4168282    
15800000100   -1.2865720    47.2888794    -9.0576611    -153.7218018  -16.8841705   -59.8502693   -1.1363890    63.8158417    
15825000100   -0.9294833    48.4428711    -8.7620811    -151.3672943  -16.0330791   -62.0706100   -1.1521651    62.3070602    
15850000100   -1.1106580    50.1581306    -8.8755960    -150.2640076  -15.8648901   -60.0577812   -1.0432190    62.4369698    
15875000100   -1.1155410    48.9759789    -9.0326586    -154.0290070  -16.6565094   -56.6989288   -1.1410340    62.6636581    
15900000100   -1.2140110    49.6961784    -9.0443602    -152.0782013  -16.1094704   -58.2762299   -1.1830519    62.6161308    
15925000100   -1.2566540    49.9939613    -8.8804855    -152.8733063  -16.2980404   -60.0564194   -1.2257340    62.5488586    
15950000100   -0.9680418    50.8157310    -9.1153288    -149.8533020  -15.3156700   -55.6832809   -1.3052059    63.3739090    
15975000100   -0.9742908    50.2299881    -8.8653936    -151.4338989  -15.8140697   -57.4319916   -1.2329090    64.1866226    
16000000100   -1.1611760    50.1798210    -8.5887079    -153.0090027  -16.3757496   -60.1056595   -1.0340190    64.2304611    
16025000100   -1.1175790    50.6111298    -8.7652731    -152.7733002  -16.0392895   -56.7392502   -1.1079370    63.1615906    
16050000100   -1.1332200    49.7467804    -8.9589453    -152.8733063  -15.5705996   -55.1693802   -1.2096649    63.1685295    
16075000100   -1.0604080    49.6493797    -8.9235725    -152.9951019  -15.4475403   -54.3631897   -1.1666830    63.3116302    
16100000100   -1.1394041    50.6007690    -8.7895603    -152.7268982  -15.3631496   -56.4582405   -1.1839710    62.0318184    
16125000100   -0.9948647    51.2111092    -8.6871386    -151.6038971  -15.3467703   -56.7049789   -1.3458080    64.3029633    
16150000100   -0.8748791    50.1834717    -8.1866932    -152.8688049  -15.3914604   -59.8258018   -1.1114780    63.7031708    
16175000100   -1.1325750    49.5836296    -8.7355747    -152.6463928  -15.0448599   -55.8161392   -1.3285440    64.1490784    
16200000100   -1.1676110    49.9930191    -8.9414024    -151.5126953  -14.7066298   -53.2713585   -1.3321650    64.4411774    
16225000100   -0.9565295    50.3117981    -8.1612539    -153.2138977  -15.3371601   -59.3721695   -1.2543110    64.5661926    
16250000100   -1.1667351    48.7710190    -8.3009882    -156.5207977  -15.8571997   -57.4844704   -1.2020930    64.6915665    
16275000100   -1.4961870    50.4046593    -8.4854155    -154.9037018  -15.5130100   -56.0727615   -1.2172040    64.5400772    
16300000100   -1.2616570    51.7446098    -8.6679907    -153.9163055  -14.7854900   -52.2562599   -1.2080760    63.1662102    
16325000100   -1.2523170    50.9728203    -8.0198975    -153.9443970  -15.0360298   -60.7144203   -1.3256871    64.0512466    
16350000100   -1.2802620    51.5289497    -8.7360067    -154.4412994  -14.7701502   -50.3985786   -1.2952150    64.6748276    
16375000100   -1.0850450    50.8669014    -8.7357702    -151.4295959  -13.6887798   -50.2098312   -1.1427180    64.5152206    
16400000100   -1.0540000    49.2387810    -8.1345053    -154.7256012  -14.3202600   -57.4454498   -1.3656110    63.1882896    
16425000100   -1.4435970    49.2490883    -8.3612566    -156.2046967  -14.5359602   -55.0165787   -1.2626640    62.7195892    
16450000100   -1.4804270    49.8936386    -8.6208000    -153.4821930  -14.1491203   -52.5227318   -1.4904571    65.6386871    
16475000100   -1.4124620    50.8744202    -8.3524427    -152.7106018  -13.7946100   -53.2134399   -1.2437830    64.7119064    
16500000100   -1.3825580    49.4707413    -8.0161867    -153.3558044  -13.8362999   -57.7210884   -1.4129790    65.0681381    
16525000100   -1.3135270    51.4283409    -7.8905811    -154.1524963  -13.9555197   -55.9861984   -1.2245910    64.6623535    
16550000100   -1.4754820    49.6326103    -8.0402622    -155.4132996  -13.8219004   -55.7609787   -1.3437181    63.6327896    
16575000100   -1.4263361    49.7047615    -7.9229002    -156.1947021  -13.7824402   -55.6579399   -1.2793900    63.2670212    
16600000100   -1.3612480    49.4116783    -8.2561855    -154.3874969  -13.2146301   -51.7433090   -1.3225729    64.5224228    
16625000100   -1.4770730    47.8520317    -8.1623602    -156.5662994  -13.2269402   -52.8820610   -1.3141270    63.0092888    
16650000100   -1.6182990    48.0871201    -7.8564219    -155.9319000  -13.2428703   -56.5137482   -1.4368110    62.8736687    
16675000100   -1.6882221    50.1982307    -7.8302832    -154.7536926  -13.1717901   -56.2975082   -1.4601790    64.0864105    
16700000100   -1.9072540    49.3521996    -8.1007700    -156.3298035  -13.3603401   -53.4886589   -1.4815600    64.1531830    
16725000100   -1.5166070    50.2938194    -7.6810942    -156.2727966  -13.1219397   -55.2142906   -1.4727139    62.5580406    
16750000100   -1.5580320    47.9872589    -7.6698928    -156.6950989  -12.6988697   -54.8523293   -1.2930110    62.8832016    
16775000100   -1.5803590    47.3383484    -7.6742320    -157.4436035  -12.6756601   -54.7420311   -1.3972310    62.9702301    
16800000100   -1.5635840    47.4865913    -7.3225050    -157.3441925  -12.5511999   -58.0477982   -1.3793920    61.7933884    
16825000100   -1.7598881    47.0673103    -7.5374970    -159.9685974  -13.1143398   -55.6403313   -1.6063790    62.5605392    
16850000100   -1.8866860    46.8551292    -7.5222640    -160.9364929  -13.0144501   -54.8641205   -1.4279950    62.0099411    
16875000100   -1.6958870    48.4648895    -7.3606958    -158.7212982  -12.4784498   -55.1182289   -1.3915110    62.3231697    
16900000100   -1.6765760    47.9450912    -7.3349199    -158.9546967  -12.2841997   -55.0195084   -1.3966720    61.7137909    
16925000100   -1.5634249    46.2818985    -7.1176848    -159.1726990  -11.9779902   -56.7861290   -1.3246810    61.6136017    
16950000100   -1.7038940    46.1789703    -6.8884101    -159.8872070  -12.0632896   -58.1090202   -1.2417130    61.0767288    
16975000100   -1.7974950    44.4889183    -7.1714048    -162.1345978  -12.0518599   -56.6488495   -1.4531620    59.8168793    
17000000100   -1.8800800    45.4474106    -7.1294961    -159.1246033  -11.4839001   -57.1937408   -1.4105420    60.1533508    
17025000100   -1.6988560    44.9901810    -6.8267169    -161.2658997  -11.5676003   -58.4241104   -1.3795050    59.7305489    
17050000100   -1.7928920    43.3258018    -6.6670489    -163.2303009  -11.8605099   -59.8389091   -1.4058970    59.4381790    
17075000100   -1.9900100    43.3020897    -6.4830198    -163.6233978  -11.9441004   -61.1262703   -1.4250439    59.2152214    
17100000100   -1.8777471    41.9594498    -6.5392041    -166.6282043  -12.0056696   -59.5084801   -1.3582489    57.5543709    
17125000100   -1.9986510    42.4654388    -6.7197900    -164.7586060  -11.4975405   -58.0412216   -1.4168910    58.6230888    
17150000100   -2.0580699    42.1780281    -6.4205842    -166.2987976  -11.5792398   -59.8817101   -1.2732180    57.1890182    
17175000100   -1.9479020    41.6579208    -6.6472631    -167.9297943  -11.5127602   -57.7706490   -1.4915200    56.5076408    
17200000100   -1.8622010    40.5026588    -6.5864530    -167.0222015  -10.9589500   -58.9347191   -1.3123569    55.3547592    
17225000100   -1.9311600    39.7090607    -6.4092379    -167.8878021  -10.9331303   -60.7543106   -1.4507411    54.3089905    
17250000100   -2.1045129    38.8996391    -6.5031409    -168.4579010  -10.9075203   -58.9561005   -1.3942670    56.1234016    
17275000100   -2.1896141    38.7326317    -6.5654669    -169.5205994  -10.8732204   -59.3517685   -1.4936500    53.5479889    
17300000100   -2.1146369    38.2026291    -6.4502039    -168.7736969  -10.5570602   -59.4161682   -1.5608870    54.2485313    
17325000100   -1.9866740    37.6630707    -6.0280161    -172.2057953  -10.9125299   -60.4206314   -1.4768090    53.4655190    
17350000100   -2.0365541    36.4322586    -6.1302881    -171.5393066  -10.4746199   -61.2026405   -1.4438469    52.8027611    
17375000100   -2.0100019    34.7091599    -5.9118290    -172.0529022  -10.3028698   -63.0402603   -1.3644170    52.4300804    
17400000100   -2.1969349    35.3323517    -5.9358940    -173.6719971  -10.3741198   -62.5603294   -1.3859130    50.7133102    
17425000100   -2.0414450    33.7762604    -5.8467469    -174.3123016  -10.2140503   -62.8824387   -1.4615980    50.6765594    
17450000100   -2.0627191    31.1591702    -5.8474922    -175.7808990  -10.0546904   -64.0481033   -1.4771210    49.7303391    
17475000100   -2.2112091    30.7798309    -5.7258248    -176.7382965  -10.1674500   -64.9953384   -1.4715379    48.8802605    
17500000100   -2.2709570    30.9950695    -5.6468482    -177.5308990  -9.9586000    -65.1382523   -1.3646550    47.6864891    
17525000100   -2.3265600    29.2522392    -5.8795280    -178.4808960  -9.8637142    -64.7194672   -1.5477030    46.8024902    
17550000100   -2.1388791    29.2211208    -5.6768408    -178.8296051  -9.6412172    -64.6676865   -1.5166670    46.7403908    
17575000100   -2.1257131    27.3705502    -5.4045911    -179.7191010  -9.4243975    -67.8127823   -1.4123180    45.3381195    
17600000100   -2.1810260    25.9527397    -5.5112481    177.8923950   -9.6189661    -67.5102921   -1.4706210    44.0980186    
17625000100   -2.2120900    24.4584808    -5.4720831    176.6389008   -9.4920425    -67.3029938   -1.4339000    43.9689598    
17650000100   -2.2283070    23.7432709    -5.4717841    175.5749054   -9.4120731    -68.0749664   -1.4690670    42.4435501    
17675000100   -2.2542109    22.3870792    -5.3211751    175.7180023   -9.2661152    -69.0277023   -1.5315350    43.0129700    
17700000100   -2.3677199    21.1574097    -5.3752198    173.3529053   -9.3706293    -69.1642838   -1.4761220    40.9792290    
17725000100   -2.3299451    19.8264694    -5.4325018    172.5717010   -9.1277323    -69.3837738   -1.5571361    40.2462387    
17750000100   -2.3883910    19.0757103    -5.3571591    172.0325928   -8.9763746    -70.1895218   -1.4210089    39.3332710    
17775000100   -2.3486490    17.1723194    -5.3005700    170.4414978   -8.8585854    -71.3980026   -1.4014610    37.8800087    
17800000100   -2.2860780    15.8208504    -5.0306039    168.8119965   -8.8705959    -73.8572922   -1.3753090    36.3617096    
17825000100   -2.3792861    14.1990299    -5.0873971    167.5991058   -8.8660154    -73.9279404   -1.4209400    35.8389702    
17850000100   -2.3321080    13.4534903    -5.1204000    166.8253021   -8.6285620    -73.9315567   -1.4218611    35.3775597    
17875000100   -2.3433011    11.3807201    -5.0243759    165.2239990   -8.6671648    -75.0785904   -1.4090240    34.3897514    
17900000100   -2.4590249    10.6369495    -5.1236148    164.0858002   -8.6501865    -74.7706833   -1.4176180    33.2340317    
17925000100   -2.3014431    9.1268444     -4.9579201    162.9958038   -8.4257574    -76.4871216   -1.3132761    32.2972603    
17950000100   -2.3167970    6.9635592     -4.8909969    159.7673950   -8.5406208    -77.7313766   -1.2608230    30.4764309    
17975000100   -2.4452479    6.0881238     -5.1812549    159.7772980   -8.3391438    -77.0076828   -1.3385910    29.5359192    
18000000100   -2.2299299    5.3377471     -4.8511062    159.7117004   -8.0814457    -79.7477570   -1.2046850    28.9058399    
